Comment: Data were digitized. Energy digitizing error is 0.961 keV
         data digitizing error is 0.001.
         Data are given as Rutherford ratio.
         Angle was converted from the center-of mass to the laboratory system.       

Version: R33
Source: D.Frekers et al. Nuclear Physics A v.394 (1983) 189
Name: Elena Kamskaya
Address1: All-Russia Scientific Research Institute of Experimental Physics
Address2: 607190, Mira, 37, Sarov, Nizhni Novgorod reg., Russia
Address3: tel: (831-30) 2-77-79   fax:( 831-30) 4-55-69
Address4: e-mail: kamskaya@expd.vniief.ru
Serial Number: 
SubFile: 
X4Number: F1042008
Reaction: 39K(a,a0)39K 
Distribution: Energy
Composition: 
Masses:    4.000,   39.000,    4.000,   39.000
Zeds: 2, 19, 2, 19
Qvalue:       0.00,      0.00,      0.00,      0.00,      0.00
Theta:   125.51
Sigfactors: 1.00, 0.00 
Enfactors: 1000.00, 0.00, 0.00, 0.00
Units: rr
Data:
     6.0149         0.     0.8888         0.
     6.0187         0.    0.93282         0.
     6.0261         0.    0.88649         0.
     6.0336         0.    0.95598         0.
     6.0373         0.    0.89112         0.
      6.041         0.    0.82394         0.
     6.0522         0.    0.90502         0.
     6.0597         0.    0.85405         0.
     6.0709         0.    0.89575         0.
     6.0784         0.    0.86564         0.
     6.0933         0.    0.84247         0.
     6.1045         0.    0.85637         0.
     6.1082         0.    0.94903         0.
     6.1119         0.     1.0139         0.
     6.1194         0.    0.91197         0.
     6.1231         0.     1.0046         0.
     6.1269         0.    0.91197         0.
     6.1343         0.    0.94672         0.
     6.1381         0.    0.91429         0.
     6.1418         0.    0.87259         0.
      6.153         0.    0.94208         0.
     6.1567         0.    0.87027         0.
     6.1604         0.    0.93745         0.
     6.1642         0.    0.86795         0.
     6.1716         0.    0.84479         0.
     6.1754         0.    0.82394         0.
     6.1828         0.    0.78224         0.
      6.194         0.    0.81931         0.
     6.2015         0.    0.79382         0.
     6.2127         0.    0.77066         0.
     6.2201         0.     0.8888         0.
     6.2388         0.    0.88649         0.
     6.2537         0.    0.92124         0.
     6.2575         0.    0.89344         0.
     6.2612         0.    0.84015         0.
     6.2836         0.    0.84015         0.
     6.2873         0.    0.81236         0.
      6.291         0.    0.76371         0.
     6.3022         0.    0.82857         0.
      6.306         0.    0.75676         0.
     6.3134         0.    0.69189         0.
     6.3246         0.    0.68494         0.
     6.3246         0.    0.69653         0.
     6.3358         0.    0.70347         0.
     6.3433         0.    0.72896         0.
     6.3507         0.    0.69421         0.
     6.3545         0.    0.72432         0.
     6.3657         0.    0.71506         0.
     6.3694         0.    0.74054         0.
     6.3769         0.    0.72664         0.
     6.3843         0.    0.80077         0.
     6.3881         0.    0.77297         0.
     6.3955         0.    0.79382         0.
      6.403         0.    0.76371         0.
     6.4067         0.    0.80541         0.
     6.4142         0.    0.82394         0.
     6.4216         0.    0.79151         0.
     6.4291         0.    0.81699         0.
     6.4328         0.    0.76602         0.
     6.4403         0.    0.83552         0.
     6.4478         0.    0.87259         0.
     6.4515         0.    0.90039         0.
      6.459         0.    0.85174         0.
     6.4627         0.    0.81236         0.
     6.4739         0.    0.78687         0.
     6.4776         0.    0.76371         0.
     6.4851         0.    0.75212         0.
        6.5         0.    0.76602         0.
     6.5037         0.    0.78456         0.
     6.5075         0.    0.81699         0.
     6.5149         0.    0.83784         0.
     6.5187         0.    0.79151         0.
     6.5224         0.    0.76602         0.
     6.5299         0.    0.72432         0.
      6.541         0.    0.82394         0.
     6.5448         0.    0.78687         0.
     6.5485         0.    0.74981         0.
     6.5672         0.    0.72896         0.
     6.5784         0.    0.78687         0.
     6.5896         0.    0.68726         0.
     6.5933         0.    0.75444         0.
      6.597         0.    0.68958         0.
     6.6007         0.    0.79382         0.
     6.6082         0.    0.76602         0.
     6.6119         0.    0.68494         0.
     6.6157         0.    0.71737         0.
     6.6231         0.    0.68726         0.
     6.6269         0.    0.77761         0.
     6.6343         0.    0.80309         0.
     6.6418         0.    0.74981         0.
      6.653         0.    0.78687         0.
     6.6604         0.    0.84942         0.
     6.6642         0.    0.78456         0.
     6.6754         0.    0.80309         0.
     6.6791         0.    0.78224         0.
     6.6903         0.    0.72664         0.
     6.6978         0.    0.76139         0.
      6.709         0.    0.76834         0.
     6.7127         0.    0.79382         0.
     6.7201         0.    0.81699         0.
     6.7239         0.    0.75676         0.
     6.7276         0.    0.71274         0.
     6.7388         0.    0.80077         0.
     6.7463         0.    0.75212         0.
     6.7575         0.    0.70811         0.
     6.7612         0.    0.68031         0.
     6.7649         0.    0.65714         0.
     6.7687         0.    0.63166         0.
     6.7799         0.    0.65019         0.
     6.7836         0.    0.62008         0.
     6.7873         0.    0.56448         0.
     6.7985         0.    0.58301         0.
      6.806         0.    0.63166         0.
     6.8172         0.    0.71506         0.
     6.8284         0.    0.67336         0.
     6.8396         0.    0.71737         0.
     6.8433         0.    0.67336         0.
     6.8507         0.    0.69189         0.
     6.8545         0.    0.65714         0.
     6.8619         0.    0.62703         0.
     6.8694         0.    0.54826         0.
     6.8806         0.    0.61776         0.
     6.8843         0.    0.64324         0.
     6.8918         0.    0.65714         0.
      6.903         0.    0.65714         0.
     6.9104         0.    0.63398         0.
     6.9216         0.    0.61776         0.
     6.9328         0.    0.62008         0.
     6.9366         0.    0.64556         0.
     6.9403         0.    0.68494         0.
     6.9515         0.    0.64093         0.
     6.9664         0.    0.66873         0.
     6.9701         0.    0.68494         0.
     6.9813         0.    0.66178         0.
     6.9888         0.    0.62471         0.
     6.9963         0.    0.71274         0.
       7.01         0.    0.76602         0.
     7.0112         0.    0.68958         0.
     7.0149         0.    0.64788         0.
     7.0261         0.    0.62008         0.
     7.0336         0.    0.58069         0.
     7.0373         0.    0.47645         0.
     7.0485         0.    0.54363         0.
      7.056         0.    0.55521         0.
     7.0672         0.    0.58069         0.
     7.0784         0.    0.60154         0.
     7.0821         0.    0.55058         0.
     7.0896         0.    0.57606         0.
     7.0933         0.     0.5112         0.
     7.1045         0.    0.58764         0.
     7.1082         0.    0.54826         0.
     7.1119         0.     0.4834         0.
     7.1194         0.    0.49961         0.
     7.1231         0.    0.51815         0.
     7.1343         0.    0.53205         0.
     7.1455         0.    0.59691         0.
     7.1604         0.    0.66641         0.
     7.1679         0.    0.56448         0.
     7.1716         0.     0.5529         0.
     7.1866         0.    0.56216         0.
     7.2015         0.     0.5668         0.
     7.2313         0.    0.46718         0.
     7.2425         0.     0.4973         0.
       7.25         0.    0.52973         0.
     7.2612         0.    0.44865         0.
     7.2761         0.    0.47645         0.
     7.2873         0.     0.4973         0.
     7.2948         0.    0.52973         0.
     7.3022         0.    0.59691         0.
     7.3097         0.    0.49961         0.
     7.3172         0.    0.48803         0.
     7.3358         0.    0.47181         0.
     7.3433         0.    0.49266         0.
     7.3582         0.    0.46255         0.
     7.3993         0.    0.51815         0.
     7.4067         0.     0.4973         0.
     7.4104         0.    0.47181         0.
     7.4216         0.    0.51815         0.
     7.4403         0.     0.5529         0.
     7.4515         0.    0.51351         0.
     7.4701         0.    0.50425         0.
     7.4813         0.    0.47876         0.
     7.4925         0.    0.56216         0.
     7.4963         0.    0.51815         0.
     7.5037         0.    0.55521         0.
     7.5149         0.    0.47181         0.
     7.5261         0.    0.45792         0.
      7.541         0.    0.46718         0.
      7.556         0.    0.44865         0.
     7.5597         0.    0.40927         0.
     7.5634         0.    0.39537         0.
     7.5709         0.    0.43938         0.
     7.5821         0.    0.46023         0.
     7.5858         0.    0.47876         0.
     7.5896         0.    0.49961         0.
     7.5933         0.    0.52741         0.
      7.597         0.    0.49961         0.
     7.6045         0.    0.53436         0.
     7.6082         0.    0.49035         0.
     7.6119         0.    0.39305         0.
     7.6231         0.    0.36062         0.
     7.6269         0.    0.40927         0.
     7.6343         0.    0.42317         0.
     7.6381         0.     0.4834         0.
     7.6455         0.    0.52046         0.
      7.653         0.     0.4556         0.
     7.6642         0.    0.43707         0.
     7.6791         0.    0.44865         0.
      7.694         0.    0.47413         0.
     7.6978         0.    0.38147         0.
     7.7015         0.    0.42085         0.
     7.7052         0.    0.37452         0.
     7.7127         0.    0.40927         0.
     7.7276         0.    0.42317         0.
     7.7388         0.    0.42317         0.
     7.7463         0.    0.38147         0.
     7.7537         0.    0.35598         0.
     7.7575         0.    0.33745         0.
     7.7649         0.    0.32124         0.
     7.7687         0.    0.35135         0.
     7.7724         0.    0.36757         0.
     7.7761         0.     0.3861         0.
     7.7836         0.    0.39537         0.
     7.8097         0.    0.36988         0.
     7.8396         0.     0.3861         0.
     7.8507         0.    0.33745         0.
     7.8619         0.    0.33514         0.
     7.8657         0.    0.35598         0.
     7.8731         0.     0.3861         0.
     7.8806         0.    0.34903         0.
     7.8955         0.    0.41158         0.
      7.903         0.    0.43707         0.
     7.9142         0.    0.40232         0.
     7.9179         0.    0.36757         0.
     7.9216         0.    0.35135         0.
     7.9254         0.     0.3305         0.
EndData:
