Comment: Data were digitized. Energy digitizing error is 0.681 keV
         data digitizing error is 0.001.
         Data are given as Rutherford ratio.
         Angle was converted from the center-of mass to the laboratory system.       

Version: R33
Source: D.Frekers et al. Nuclear Physics A v.394 (1983) 189
Name: Elena Kamskaya
Address1: All-Russia Scientific Research Institute of Experimental Physics
Address2: 607190, Mira, 37, Sarov, Nizhni Novgorod reg., Russia
Address3: tel: (831-30) 2-77-79   fax:( 831-30) 4-55-69
Address4: e-mail: kamskaya@expd.vniief.ru
Serial Number: 
SubFile: 
X4Number: F1042008
Reaction: 39K(a,a0)39K 
Distribution: Energy
Composition: 
Masses:    4.000,   39.000,    4.000,   39.000
Zeds: 2, 19, 2, 19
Qvalue:       0.00,      0.00,      0.00,      0.00,      0.00
Theta:   155.46
Sigfactors: 1.00, 0.00 
Enfactors: 1000.00, 0.00, 0.00, 0.00
Units: rr
Data:
     6.0112         0.    0.98599         0.
     6.0149         0.     0.9463         0.
     6.0186         0.    0.89027         0.
     6.0335         0.    0.84825         0.
     6.0409         0.    0.82023         0.
     6.0484         0.    0.77588         0.
     6.0596         0.    0.80156         0.
     6.0596         0.    0.84358         0.
     6.0633         0.    0.86226         0.
     6.0707         0.    0.84125         0.
     6.0744         0.     0.8716         0.
     6.0782         0.    0.84125         0.
     6.0819         0.    0.89261         0.
     6.0893         0.     0.8109         0.
     6.0931         0.    0.89027         0.
     6.1042         0.    0.86459         0.
     6.1005         0.    0.89961         0.
     6.1079         0.     0.8786         0.
     6.1117         0.    0.94163         0.
     6.1191         0.    0.88093         0.
     6.1228         0.    0.85058         0.
     6.1303         0.    0.86226         0.
      6.134         0.    0.83658         0.
     6.1377         0.    0.78288         0.
     6.1452         0.    0.80389         0.
     6.1489         0.    0.78521         0.
     6.1563         0.    0.80389         0.
     6.1638         0.    0.78521         0.
     6.1712         0.    0.77821         0.
     6.1749         0.    0.75953         0.
     6.1787         0.    0.71284         0.
     6.1861         0.    0.76187         0.
     6.1898         0.    0.74319         0.
     6.1935         0.    0.80389         0.
     6.1973         0.     0.7642         0.
      6.201         0.    0.85992         0.
     6.2084         0.    0.75019         0.
     6.2122         0.    0.86459         0.
     6.2196         0.    0.83424         0.
     6.2233         0.    0.93696         0.
     6.2345         0.    0.82957         0.
     6.2382         0.    0.77354         0.
     6.2457         0.    0.75253         0.
     6.2494         0.    0.72685         0.
     6.2605         0.     0.7572         0.
      6.268         0.    0.76187         0.
     6.2792         0.    0.76187         0.
      6.294         0.    0.73152         0.
     6.2978         0.    0.78988         0.
     6.3015         0.    0.73385         0.
     6.3052         0.    0.64981         0.
     6.3089         0.    0.68949         0.
     6.3164         0.    0.63813         0.
     6.3201         0.    0.68949         0.
     6.3275         0.    0.65214         0.
     6.3313         0.    0.73852         0.
      6.335         0.    0.76654         0.
     6.3387         0.    0.73852         0.
     6.3424         0.    0.78755         0.
     6.3462         0.    0.72218         0.
     6.3499         0.    0.79922         0.
     6.3536         0.    0.72218         0.
     6.3573         0.    0.77588         0.
      6.361         0.    0.75253         0.
     6.3648         0.     0.8249         0.
     6.3685         0.     0.7572         0.
     6.3722         0.    0.88093         0.
     6.3759         0.    0.74553         0.
     6.3834         0.    0.82023         0.
     6.3871         0.    0.72685         0.
     6.3945         0.    0.81323         0.
      6.402         0.    0.83424         0.
     6.4094         0.    0.81556         0.
     6.4169         0.    0.79455         0.
     6.4243         0.    0.76654         0.
     6.4318         0.    0.79455         0.
     6.4355         0.    0.82023         0.
     6.4467         0.    0.85292         0.
     6.4467         0.    0.79922         0.
     6.4541         0.    0.75253         0.
     6.4578         0.    0.81556         0.
     6.4615         0.    0.79222         0.
     6.4653         0.    0.82957         0.
     6.4801         0.    0.78288         0.
      6.495         0.    0.74319         0.
     6.4988         0.    0.72451         0.
     6.5062         0.    0.70817         0.
     6.5099         0.     0.7642         0.
     6.5211         0.    0.73852         0.
     6.5285         0.    0.77121         0.
      6.536         0.    0.78755         0.
     6.5434         0.     0.8109         0.
     6.5546         0.     0.7642         0.
     6.5583         0.    0.74086         0.
     6.5658         0.    0.71284         0.
     6.5658         0.    0.68249         0.
     6.5806         0.    0.68249         0.
     6.5769         0.    0.66848         0.
     6.5955         0.    0.67082         0.
     6.6141         0.    0.68482         0.
     6.6179         0.    0.70117         0.
     6.6216         0.    0.74086         0.
     6.6328         0.     0.7642         0.
     6.6402         0.    0.73619         0.
     6.6365         0.    0.70117         0.
     6.6439         0.    0.71518         0.
     6.6476         0.    0.66848         0.
     6.6551         0.    0.71518         0.
     6.6588         0.    0.69183         0.
     6.6625         0.    0.65447         0.
     6.6663         0.    0.63113         0.
     6.6774         0.    0.56576         0.
     6.6849         0.     0.6358         0.
     6.6886         0.    0.70117         0.
     6.6923         0.    0.75019         0.
     6.7072         0.    0.83191         0.
     6.7109         0.    0.75953         0.
     6.7221         0.    0.68716         0.
     6.7333         0.    0.64514         0.
     6.7444         0.    0.59844         0.
     6.7556         0.    0.55409         0.
     6.7593         0.     0.4537         0.
      6.763         0.    0.54475         0.
     6.7667         0.    0.46537         0.
     6.7742         0.    0.54241         0.
     6.7779         0.    0.54942         0.
     6.7891         0.    0.54708         0.
     6.7965         0.    0.55409         0.
     6.7965         0.    0.61712         0.
      6.804         0.    0.66381         0.
     6.8151         0.    0.68716         0.
     6.8263         0.    0.67549         0.
     6.8375         0.    0.65214         0.
     6.8375         0.     0.6965         0.
     6.8486         0.    0.74086         0.
     6.8524         0.    0.66381         0.
     6.8672         0.    0.52607         0.
     6.8747         0.    0.72451         0.
     6.8821         0.    0.78755         0.
     6.8896         0.    0.85525         0.
     6.8933         0.    0.80623         0.
      6.897         0.    0.77354         0.
     6.9082         0.    0.75953         0.
     6.9231         0.    0.76887         0.
     6.9305         0.    0.74086         0.
     6.9342         0.     0.7035         0.
     6.9491         0.    0.68482         0.
     6.9529         0.    0.64514         0.
     6.9603         0.    0.67549         0.
     6.9677         0.    0.61245         0.
     6.9715         0.    0.69883         0.
     6.9752         0.    0.71751         0.
     6.9789         0.    0.75019         0.
     6.9826         0.    0.76654         0.
     6.9975         0.    0.77821         0.
      7.005         0.    0.74553         0.
     7.0087         0.    0.71518         0.
     7.0161         0.    0.67315         0.
     7.0199         0.    0.62879         0.
     7.0273         0.     0.5751         0.
     7.0347         0.    0.44903         0.
     7.0422         0.    0.49339         0.
     7.0496         0.    0.45603         0.
     7.0533         0.     0.5214         0.
     7.0608         0.    0.54008         0.
     7.0682         0.     0.5751         0.
     7.0757         0.    0.65447         0.
     7.0831         0.     0.5821         0.
     7.0868         0.    0.53307         0.
     7.0943         0.    0.50506         0.
      7.098         0.    0.56342         0.
     7.1055         0.    0.53074         0.
     7.1092         0.    0.57043         0.
     7.1129         0.    0.59844         0.
     7.1166         0.    0.62646         0.
     7.1278         0.    0.65214         0.
     7.1352         0.    0.62879         0.
      7.139         0.    0.67082         0.
     7.1464         0.    0.63113         0.
     7.1576         0.    0.66615         0.
      7.165         0.    0.71284         0.
     7.1687         0.     0.6428         0.
     7.1725         0.    0.62179         0.
     7.1762         0.    0.57977         0.
     7.1799         0.     0.6358         0.
     7.1836         0.    0.59144         0.
     7.1873         0.     0.6428         0.
     7.1911         0.    0.66381         0.
     7.1948         0.    0.70817         0.
     7.1985         0.     0.7572         0.
      7.206         0.    0.70584         0.
     7.2097         0.    0.66848         0.
     7.2134         0.    0.64514         0.
     7.2208         0.    0.62412         0.
     7.2246         0.    0.56809         0.
     7.2283         0.    0.54008         0.
      7.232         0.    0.51206         0.
     7.2357         0.    0.49105         0.
     7.2432         0.    0.50973         0.
     7.2469         0.    0.53774         0.
     7.2506         0.     0.5751         0.
     7.2543         0.    0.61245         0.
     7.2581         0.    0.54475         0.
     7.2618         0.     0.6428         0.
     7.2655         0.     0.5144         0.
     7.2692         0.    0.63813         0.
      7.273         0.    0.61012         0.
     7.2767         0.    0.71518         0.
     7.2878         0.    0.78054         0.
     7.2916         0.    0.69416         0.
     7.2953         0.    0.60778         0.
      7.299         0.     0.5214         0.
     7.3065         0.    0.49339         0.
     7.3176         0.    0.47471         0.
     7.3288         0.    0.50272         0.
     7.3437         0.    0.57043         0.
     7.3511         0.    0.61712         0.
     7.3734         0.    0.58911         0.
     7.3809         0.    0.64047         0.
     7.3883         0.    0.68949         0.
     7.3921         0.     0.6428         0.
     7.3995         0.    0.66848         0.
     7.4032         0.    0.61245         0.
     7.4069         0.     0.5821         0.
     7.4107         0.    0.55642         0.
     7.4218         0.    0.59611         0.
     7.4293         0.    0.63113         0.
      7.433         0.    0.77121         0.
     7.4442         0.    0.92062         0.
     7.4591         0.    0.84591         0.
     7.4665         0.    0.77121         0.
     7.4702         0.    0.65214         0.
     7.4777         0.    0.72451         0.
     7.4851         0.    0.67315         0.
     7.4963         0.    0.73152         0.
        7.5         0.    0.67782         0.
     7.5074         0.    0.61245         0.
     7.5149         0.    0.68249         0.
     7.5223         0.    0.76887         0.
     7.5298         0.    0.65681         0.
     7.5372         0.    0.61946         0.
     7.5447         0.    0.65681         0.
     7.5558         0.    0.55642         0.
      7.567         0.    0.59144         0.
     7.5744         0.    0.63113         0.
     7.5782         0.    0.57043         0.
     7.5856         0.    0.53541         0.
     7.5893         0.    0.50272         0.
     7.5931         0.    0.47471         0.
     7.5968         0.    0.44903         0.
     7.6005         0.    0.43502         0.
     7.6117         0.     0.4537         0.
     7.6154         0.    0.49339         0.
     7.6191         0.    0.54008         0.
     7.6228         0.    0.56109         0.
     7.6303         0.    0.58677         0.
     7.6377         0.    0.62646         0.
     7.6526         0.    0.59611         0.
     7.6638         0.    0.63813         0.
     7.6675         0.    0.68016         0.
     7.6712         0.     0.7035         0.
     7.6749         0.    0.74786         0.
     7.6824         0.    0.80156         0.
     7.6861         0.    0.75019         0.
     7.6935         0.    0.80389         0.
     7.6973         0.    0.71984         0.
      7.701         0.    0.61245         0.
     7.7047         0.     0.5821         0.
     7.7122         0.    0.57276         0.
     7.7196         0.     0.6428         0.
     7.7233         0.    0.68716         0.
     7.7308         0.    0.71051         0.
     7.7382         0.    0.62179         0.
     7.7457         0.    0.54475         0.
     7.7568         0.    0.44202         0.
     7.7643         0.    0.53307         0.
      7.768         0.    0.54475         0.
     7.7717         0.    0.63346         0.
     7.7754         0.    0.57276         0.
     7.7829         0.    0.64047         0.
     7.7903         0.    0.56576         0.
     7.7978         0.    0.60778         0.
     7.8052         0.    0.67782         0.
     7.8127         0.    0.71518         0.
     7.8201         0.    0.76887         0.
     7.8238         0.    0.73619         0.
     7.8275         0.    0.69883         0.
      7.835         0.    0.68249         0.
     7.8462         0.    0.71751         0.
     7.8536         0.    0.81556         0.
     7.8573         0.     0.8856         0.
     7.8685         0.    0.74319         0.
     7.8759         0.    0.63813         0.
     7.8797         0.    0.57743         0.
     7.8834         0.     0.5214         0.
     7.8871         0.    0.49339         0.
     7.8908         0.    0.47471         0.
     7.8945         0.    0.45837         0.
      7.902         0.    0.55409         0.
     7.9094         0.     0.5821         0.
     7.9132         0.    0.61479         0.
     7.9206         0.    0.64747         0.
EndData:
