Comment: Data were digitized. Energy digitizing error is 0.919 keV
         data digitizing error is 0.001.
         Data are given as Rutherford ratio.
         Angle was converted from the center-of mass to the laboratory system.       

Version: R33
Source: D.Frekers et al. Nuclear Physics A v.394 (1983) 189
Name: Elena Kamskaya
Address1: All-Russia Scientific Research Institute of Experimental Physics
Address2: 607190, Mira, 37, Sarov, Nizhni Novgorod reg., Russia
Address3: tel: (831-30) 2-77-79   fax:( 831-30) 4-55-69
Address4: e-mail: kamskaya@expd.vniief.ru
Serial Number: 
SubFile: 
X4Number: F1042008
Reaction: 39K(a,a0)39K 
Distribution: Energy
Composition: 
Masses:    4.000,   39.000,    4.000,   39.000
Zeds: 2, 19, 2, 19
Qvalue:       0.00,      0.00,      0.00,      0.00,      0.00
Theta:   145.46
Sigfactors: 1.00, 0.00 
Enfactors: 1000.00, 0.00, 0.00, 0.00
Units: rr
Data:
     6.0128         0.    0.96278         0.
     6.0239         0.    0.94649         0.
     6.0275         0.    0.92788         0.
     6.0385         0.    0.86276         0.
     6.0533         0.    0.84414         0.
     6.0644         0.    0.82087         0.
     6.0756         0.    0.83714         0.
     6.0831         0.    0.88597         0.
     6.0941         0.    0.83712         0.
     6.0979         0.    0.86968         0.
     6.1091         0.     0.8999         0.
     6.1166         0.    0.92315         0.
      6.124         0.    0.90453         0.
     6.1314         0.     0.8929         0.
     6.1387         0.    0.83243         0.
     6.1423         0.    0.79987         0.
      6.146         0.    0.78126         0.
     6.1571         0.    0.76032         0.
     6.1608         0.    0.77659         0.
     6.1646         0.    0.79287         0.
     6.1683         0.    0.81845         0.
     6.1721         0.    0.85333         0.
     6.1757         0.    0.78588         0.
     6.1793         0.    0.73239         0.
     6.1906         0.    0.79052         0.
      6.198         0.    0.81377         0.
     6.2018         0.    0.83469         0.
     6.2055         0.    0.82074         0.
     6.2129         0.    0.83701         0.
     6.2167         0.    0.85561         0.
     6.2242         0.    0.88583         0.
     6.2278         0.    0.83932         0.
     6.2314         0.    0.80443         0.
     6.2351         0.    0.77885         0.
     6.2388         0.    0.76256         0.
      6.261         0.    0.74859         0.
     6.2647         0.    0.73463         0.
      6.272         0.    0.69742         0.
     6.2795         0.    0.73694         0.
      6.287         0.    0.76484         0.
     6.2944         0.    0.75321         0.
     6.3018         0.     0.7439         0.
     6.3055         0.    0.71831         0.
     6.3128         0.     0.6811         0.
     6.3127         0.    0.65319         0.
     6.3238         0.    0.62527         0.
     6.3313         0.     0.6555         0.
     6.3352         0.    0.72526         0.
     6.3466         0.    0.81595         0.
     6.3501         0.     0.7299         0.
     6.3539         0.    0.77873         0.
     6.3612         0.    0.72989         0.
      6.365         0.    0.78337         0.
     6.3689         0.    0.82756         0.
     6.3725         0.    0.78337         0.
     6.3763         0.    0.83685         0.
     6.3799         0.    0.77871         0.
     6.3837         0.    0.82754         0.
      6.391         0.    0.78102         0.
     6.3949         0.    0.84381         0.
     6.4022         0.    0.80659         0.
     6.4097         0.    0.82519         0.
     6.4134         0.    0.80426         0.
     6.4208         0.    0.82053         0.
     6.4245         0.    0.80657         0.
     6.4319         0.    0.78796         0.
     6.4394         0.    0.80888         0.
     6.4431         0.    0.82516         0.
     6.4543         0.     0.8391         0.
     6.4654         0.    0.82281         0.
     6.4727         0.     0.7856         0.
     6.4763         0.    0.73443         0.
     6.4836         0.    0.66466         0.
     6.4948         0.    0.69255         0.
     6.4986         0.    0.73441         0.
     6.5061         0.    0.76464         0.
     6.5098         0.    0.78091         0.
     6.5247         0.    0.77392         0.
     6.5358         0.    0.78786         0.
     6.5396         0.    0.80181         0.
      6.547         0.    0.81111         0.
     6.5507         0.    0.78087         0.
     6.5543         0.    0.75064         0.
     6.5617         0.    0.72737         0.
     6.5616         0.    0.69714         0.
     6.5652         0.     0.6576         0.
     6.5728         0.    0.69946         0.
     6.5765         0.    0.70875         0.
     6.5913         0.    0.70176         0.
     6.6025         0.    0.70408         0.
     6.6061         0.    0.68314         0.
     6.6172         0.    0.64825         0.
      6.621         0.     0.6808         0.
     6.6284         0.    0.69708         0.
     6.6285         0.    0.72498         0.
     6.6361         0.    0.77381         0.
     6.6434         0.    0.72497         0.
      6.647         0.    0.68543         0.
     6.6619         0.    0.69704         0.
     6.6693         0.    0.68541         0.
     6.6729         0.     0.6575         0.
     6.6765         0.    0.62261         0.
     6.6803         0.    0.65052         0.
     6.6839         0.    0.61563         0.
     6.6917         0.    0.75981         0.
      6.699         0.    0.71561         0.
     6.7029         0.    0.76445         0.
     6.7102         0.    0.72491         0.
     6.7137         0.    0.65048         0.
     6.7286         0.    0.66675         0.
     6.7398         0.    0.67837         0.
     6.7472         0.    0.66441         0.
     6.7546         0.    0.64579         0.
     6.7619         0.    0.61323         0.
     6.7655         0.    0.56671         0.
     6.7916         0.     0.6132         0.
     6.8065         0.    0.61086         0.
     6.8177         0.    0.64108         0.
     6.8214         0.    0.66899         0.
     6.8252         0.    0.69921         0.
     6.8363         0.     0.6806         0.
       6.84         0.    0.65734         0.
     6.8437         0.    0.64106         0.
      6.851         0.    0.60384         0.
     6.8546         0.    0.56198         0.
     6.8584         0.    0.59918         0.
      6.862         0.    0.54337         0.
     6.8733         0.    0.61777         0.
     6.8771         0.    0.66428         0.
     6.8809         0.    0.68986         0.
     6.8847         0.    0.72009         0.
      6.892         0.    0.68985         0.
     6.8958         0.    0.71078         0.
     6.8994         0.    0.68286         0.
     6.9031         0.    0.66193         0.
     6.9068         0.    0.63635         0.
     6.9105         0.    0.66425         0.
     6.9179         0.    0.63401         0.
     6.9217         0.    0.66424         0.
     6.9254         0.    0.68749         0.
     6.9292         0.    0.70144         0.
      6.944         0.    0.70143         0.
     6.9477         0.    0.69212         0.
     6.9514         0.    0.66886         0.
     6.9587         0.    0.63862         0.
     6.9699         0.    0.64791         0.
     6.9811         0.    0.67348         0.
      6.985         0.     0.7293         0.
     6.9886         0.    0.68045         0.
     6.9962         0.     0.7851         0.
     7.0034         0.    0.68044         0.
     7.0107         0.    0.63857         0.
     7.0181         0.    0.60833         0.
     7.0255         0.     0.5967         0.
     7.0328         0.    0.54785         0.
     7.0363         0.    0.45018         0.
     7.0438         0.    0.50366         0.
     7.0513         0.    0.52458         0.
     7.0551         0.    0.54551         0.
     7.0589         0.    0.58969         0.
     7.0738         0.    0.61526         0.
     7.0774         0.    0.56874         0.
     7.0847         0.    0.53153         0.
     7.1106         0.    0.50359         0.
     7.1218         0.    0.52916         0.
     7.1256         0.    0.55009         0.
     7.1331         0.    0.58264         0.
     7.1517         0.    0.60821         0.
     7.1592         0.     0.6268         0.
      7.163         0.    0.64773         0.
     7.1778         0.    0.63144         0.
     7.1814         0.    0.57329         0.
     7.1965         0.    0.69886         0.
     7.2001         0.    0.65235         0.
      7.215         0.    0.66861         0.
     7.2223         0.    0.61512         0.
     7.2295         0.    0.51511         0.
     7.2331         0.    0.46627         0.
     7.2481         0.    0.51742         0.
     7.2593         0.    0.54996         0.
     7.2742         0.    0.58251         0.
     7.2854         0.    0.62668         0.
     7.2928         0.    0.58714         0.
     7.2964         0.    0.54528         0.
     7.3037         0.    0.49411         0.
     7.3073         0.    0.44759         0.
      7.322         0.    0.37781         0.
     7.3296         0.    0.44292         0.
     7.3333         0.    0.46617         0.
     7.3371         0.     0.4871         0.
     7.3409         0.    0.51733         0.
     7.3521         0.     0.5522         0.
     7.3557         0.    0.52429         0.
     7.3669         0.    0.51963         0.
     7.3781         0.     0.5452         0.
     7.3818         0.    0.56845         0.
     7.3931         0.    0.62658         0.
     7.3967         0.    0.56146         0.
     7.4003         0.     0.5196         0.
     7.4113         0.    0.47307         0.
     7.4188         0.    0.49865         0.
     7.4303         0.    0.64748         0.
     7.4342         0.    0.71259         0.
     7.4416         0.    0.72421         0.
     7.4455         0.    0.77072         0.
      7.449         0.    0.70327         0.
     7.4529         0.    0.78931         0.
     7.4601         0.     0.6707         0.
     7.4711         0.    0.61023         0.
     7.4823         0.    0.66836         0.
     7.4933         0.    0.60323         0.
     7.5043         0.    0.53578         0.
     7.5118         0.    0.57298         0.
     7.5231         0.    0.64274         0.
     7.5267         0.    0.57529         0.
     7.5378         0.    0.56598         0.
     7.5451         0.    0.52876         0.
     7.5487         0.    0.48457         0.
     7.5562         0.    0.50549         0.
     7.5711         0.    0.53339         0.
     7.5858         0.    0.48454         0.
     7.5932         0.     0.4543         0.
     7.6006         0.    0.43103         0.
      7.608         0.    0.41242         0.
     7.6155         0.     0.4659         0.
     7.6231         0.    0.52171         0.
     7.6269         0.    0.58682         0.
     7.6343         0.    0.57054         0.
     7.6417         0.    0.54262         0.
     7.6565         0.    0.51703         0.
     7.6603         0.    0.54726         0.
     7.6676         0.    0.52864         0.
     7.6715         0.    0.59608         0.
     7.6793         0.    0.72398         0.
     7.6865         0.    0.65188         0.
     7.6938         0.    0.60536         0.
     7.6974         0.    0.54024         0.
     7.7049         0.    0.56582         0.
     7.7159         0.    0.51464         0.
     7.7197         0.    0.56115         0.
     7.7235         0.    0.58673         0.
     7.7273         0.    0.63789         0.
     7.7347         0.    0.60998         0.
     7.7383         0.    0.57276         0.
     7.7456         0.    0.50531         0.
     7.7491         0.    0.43554         0.
     7.7564         0.     0.3867         0.
     7.7602         0.    0.42623         0.
     7.7678         0.    0.47971         0.
     7.7717         0.    0.56575         0.
      7.779         0.    0.51458         0.
     7.7828         0.    0.54946         0.
     7.7901         0.     0.5169         0.
     7.7939         0.    0.55178         0.
     7.7977         0.    0.56806         0.
     7.8051         0.    0.55177         0.
     7.8088         0.     0.5727         0.
     7.8162         0.    0.54478         0.
       7.82         0.    0.57734         0.
     7.8238         0.    0.61687         0.
     7.8312         0.    0.60291         0.
     7.8349         0.    0.58662         0.
     7.8422         0.    0.56801         0.
      7.846         0.    0.60522         0.
     7.8499         0.     0.6494         0.
     7.8535         0.    0.60289         0.
     7.8611         0.    0.70986         0.
     7.8683         0.    0.58427         0.
     7.8718         0.    0.52845         0.
     7.8792         0.    0.49123         0.
     7.8828         0.    0.44007         0.
     7.8901         0.    0.40983         0.
     7.9127         0.    0.54469         0.
     7.9168         0.     0.6819         0.
     7.9243         0.    0.72607         0.
EndData:
