Comment: Data were digitized. Energy digitizing error is 2.553 keV
         data digitizing error is 0.001.
         Data are given as Rutherford ratio.
         Angle was converted from the center-of mass to the laboratory system.       
  

Version: R33
Source: D.Frekers et al. Nuclear Physics A v.394 (1983) 189
Name: Elena Kamskaya
Address1: All-Russia Scientific Research Institute of Experimental Physics
Address2: 607190, Mira, 37, Sarov, Nizhni Novgorod reg., Russia
Address3: tel: (831-30) 2-77-79   fax:( 831-30) 4-55-69
Address4: e-mail: kamskaya@expd.vniief.ru
Serial Number: 
SubFile: 
X4Number: F1042007
Reaction: 41Ca(a,a0)41Ca 
Distribution: Energy
Composition: 
Masses:    4.000,   41.000,    4.000,   41.000
Zeds: 2, 20, 2, 20
Qvalue:       0.00,      0.00,      0.00,      0.00,      0.00
Theta:   166.05
Sigfactors: 1.00, 0.00 
Enfactors: 1000.00, 0.00, 0.00, 0.00
Units: rr
Data:
     5.6147         0.    0.99459         0.
     5.6195         0.    0.98635         0.
     5.6388         0.    0.98636         0.
     5.6485         0.    0.96988         0.
     5.6534         0.    0.94516         0.
     5.6631         0.    0.92594         0.
     5.6823         0.    0.93969         0.
     5.6872         0.    0.90947         0.
     5.7016         0.    0.94245         0.
     5.7161         0.    0.96444         0.
     5.7305         0.    0.96445         0.
     5.7354         0.    0.94247         0.
     5.7498         0.    0.96171         0.
     5.7643         0.    0.94249         0.
     5.7836         0.    0.95349         0.
     5.8029         0.    0.93153         0.
     5.8224         0.    0.87385         0.
     5.8367         0.    0.92881         0.
     5.8511         0.    0.95904         0.
      5.856         0.    0.93157         0.
     5.8609         0.    0.90684         0.
     5.8753         0.    0.92059         0.
     5.8802         0.    0.90961         0.
     5.8899         0.    0.87939         0.
     5.8946         0.    0.91786         0.
      5.909         0.    0.94809         0.
     5.9187         0.    0.91238         0.
     5.9236         0.    0.88216         0.
     5.9284         0.    0.91239         0.
     5.9331         0.     0.9536         0.
     5.9429         0.    0.90965         0.
     5.9526         0.    0.88768         0.
     5.9574         0.    0.86296         0.
     5.9718         0.    0.92341         0.
     5.9815         0.    0.89319         0.
      5.991         0.     0.9454         0.
     6.0007         0.    0.93167         0.
     6.0056         0.    0.90695         0.
     6.0104         0.    0.88222         0.
     6.0201         0.    0.89871         0.
     6.0249         0.     0.8685         0.
     6.0442         0.    0.89324         0.
     6.0586         0.    0.90973         0.
     6.0779         0.    0.92348         0.
     6.0876         0.     0.9125         0.
     6.0973         0.     0.8658         0.
     6.1068         0.    0.90976         0.
     6.1213         0.    0.90977         0.
     6.1262         0.    0.87406         0.
     6.1311         0.    0.84659         0.
     6.1408         0.    0.83561         0.
     6.1504         0.    0.86034         0.
       6.16         0.    0.87134         0.
     6.1744         0.    0.88508         0.
     6.1841         0.    0.86311         0.
     6.1938         0.    0.84389         0.
     6.2131         0.    0.83841         0.
     6.2276         0.    0.81095         0.
     6.2517         0.    0.85217         0.
     6.2612         0.     0.8824         0.
     6.2758         0.    0.84944         0.
     6.2854         0.    0.86318         0.
     6.3047         0.    0.87144         0.
     6.3288         0.    0.84948         0.
     6.3435         0.    0.74784         0.
     6.3483         0.    0.78905         0.
      6.358         0.    0.75609         0.
     6.3626         0.    0.83851         0.
     6.3771         0.    0.85226         0.
     6.3819         0.    0.83028         0.
     6.3964         0.    0.85502         0.
     6.4012         0.    0.82755         0.
     6.4108         0.    0.85503         0.
     6.4156         0.    0.87701         0.
     6.4204         0.    0.90998         0.
     6.4253         0.    0.86603         0.
     6.4302         0.    0.82482         0.
     6.4398         0.    0.81934         0.
     6.4302         0.    0.80559         0.
     6.4495         0.     0.8111         0.
     6.4544         0.    0.79462         0.
     6.4591         0.     0.8221         0.
      6.464         0.    0.78364         0.
     6.4735         0.    0.88529         0.
     6.4832         0.    0.82211         0.
     6.4882         0.    0.76442         0.
     6.4929         0.    0.81388         0.
     6.4979         0.    0.71498         0.
     6.5074         0.    0.82213         0.
     6.5172         0.    0.74246         0.
     6.5219         0.    0.80016         0.
     6.5268         0.     0.7617         0.
     6.5362         0.    0.84688         0.
     6.5603         0.    0.88535         0.
       6.57         0.    0.87162         0.
      6.575         0.    0.74525         0.
      6.594         0.    0.88538         0.
     6.6039         0.    0.80022         0.
     6.6135         0.    0.78924         0.
      6.628         0.    0.77002         0.
     6.6474         0.    0.75904         0.
     6.6523         0.    0.71509         0.
     6.6572         0.    0.67388         0.
     6.6715         0.    0.75906         0.
     6.6765         0.    0.67939         0.
     6.6812         0.    0.71785         0.
     6.6862         0.    0.64917         0.
     6.6909         0.    0.72061         0.
     6.6956         0.    0.76457         0.
       6.71         0.     0.7948         0.
     6.7149         0.    0.73436         0.
     6.7246         0.    0.70689         0.
     6.7343         0.    0.72339         0.
     6.7486         0.    0.77285         0.
     6.7535         0.    0.74263         0.
     6.7584         0.    0.71241         0.
     6.7633         0.    0.69868         0.
     6.7824         0.    0.76463         0.
     6.7873         0.    0.70969         0.
     6.7921         0.    0.75639         0.
     6.7968         0.    0.80035         0.
     6.8112         0.    0.85256         0.
     6.8163         0.    0.69047         0.
     6.8259         0.    0.73993         0.
     6.8306         0.    0.75917         0.
     6.8354         0.    0.77565         0.
     6.8453         0.    0.67951         0.
       6.85         0.    0.73995         0.
     6.8596         0.    0.75369         0.
     6.8693         0.    0.73447         0.
     6.8742         0.    0.69601         0.
     6.9026         0.     0.9323         0.
     6.9176         0.    0.69879         0.
     6.9222         0.    0.77846         0.
     6.9366         0.    0.82243         0.
     6.9464         0.    0.78123         0.
     6.9611         0.    0.63838         0.
     6.9803         0.     0.6796         0.
     6.9949         0.    0.64115         0.
     7.0089         0.    0.83347         0.
      7.014         0.    0.72633         0.
     7.0284         0.    0.75381         0.
     7.0382         0.    0.68239         0.
     7.0573         0.    0.77581         0.
     7.0622         0.    0.72361         0.
     7.0719         0.    0.70988         0.
     7.0815         0.    0.72363         0.
     7.1006         0.    0.82254         0.
     7.1055         0.     0.7676         0.
     7.1204         0.    0.56981         0.
     7.1348         0.    0.62751         0.
EndData:
