Comment: Data were digitized. Energy digitizing error is 1.046 keV
         data digitizing error is 0.001.
         Data are given as Rutherford ratio.
         Angle was converted from the center-of mass to the laboratory system.       
  

Version: R33
Source: D.Frekers et al. Nuclear Physics A v.394 (1983) 189
Name: Elena Kamskaya
Address1: All-Russia Scientific Research Institute of Experimental Physics
Address2: 607190, Mira, 37, Sarov, Nizhni Novgorod reg., Russia
Address3: tel: (831-30) 2-77-79   fax:( 831-30) 4-55-69
Address4: e-mail: kamskaya@expd.vniief.ru
Serial Number: 
SubFile: 
X4Number: F1042007
Reaction: 41Ca(a,a0)41Ca 
Distribution: Energy
Composition: 
Masses:    4.000,   41.000,    4.000,   41.000
Zeds: 2, 20, 2, 20
Qvalue:       0.00,      0.00,      0.00,      0.00,      0.00
Theta:   106.02
Sigfactors: 1.00, 0.00 
Enfactors: 1000.00, 0.00, 0.00, 0.00
Units: rr
Data:
     5.6049         0.     1.0196         0.
     5.6147         0.    0.99183         0.
     5.6342         0.     1.0057         0.
     5.6391         0.    0.99187         0.
     5.6586         0.    0.97801         0.
     5.6637         0.     0.9419         0.
     5.6731         0.     1.0002         0.
     5.6879         0.    0.96416         0.
     5.7074         0.    0.97252         0.
     5.7172         0.    0.95309         0.
     5.7268         0.     0.9781         0.
     5.7365         0.    0.99479         0.
     5.7463         0.    0.98091         0.
     5.7609         0.    0.98649         0.
     5.7755         0.    0.98651         0.
     5.7948         0.     1.0171         0.
     5.8046         0.     1.0171         0.
     5.8096         0.      0.981         0.
     5.8097         0.    0.95045         0.
     5.8242         0.    0.97269         0.
     5.8486         0.    0.97272         0.
     5.8631         0.    0.99219         0.
     5.8778         0.    0.97832         0.
     5.8876         0.    0.96167         0.
     5.8972         0.    0.99779         0.
     5.9166         0.     1.0062         0.
     5.9216         0.    0.97838         0.
     5.9315         0.    0.95062         0.
      5.951         0.    0.94231         0.
     5.9562         0.     0.8701         0.
     5.9611         0.    0.85344         0.
     5.9702         0.    0.99512         0.
     5.9752         0.    0.96457         0.
     5.9849         0.    0.97847         0.
     5.9899         0.    0.95904         0.
     5.9994         0.     1.0063         0.
     6.0093         0.    0.97295         0.
     6.0192         0.    0.93408         0.
      6.029         0.     0.9202         0.
     6.0435         0.      0.948         0.
      6.058         0.    0.98413         0.
     6.0629         0.    0.96192         0.
     6.0776         0.    0.95361         0.
     6.0921         0.    0.96474         0.
     6.1067         0.    0.96754         0.
     6.1164         0.    0.98144         0.
     6.1214         0.      0.962         0.
     6.1359         0.    0.98147         0.
     6.1408         0.    0.96203         0.
     6.1459         0.     0.9287         0.
     6.1508         0.    0.90371         0.
     6.1604         0.    0.95372         0.
       6.17         0.    0.96485         0.
     6.1895         0.    0.97599         0.
      6.209         0.    0.97324         0.
     6.2188         0.    0.95936         0.
     6.2285         0.    0.95104         0.
     6.2335         0.    0.93994         0.
     6.2482         0.    0.91496         0.
     6.2529         0.    0.95663         0.
     6.2624         0.    0.99831         0.
     6.2675         0.    0.94554         0.
     6.2723         0.    0.97611         0.
     6.2773         0.    0.94556         0.
      6.282         0.    0.97334         0.
     6.2966         0.    0.97614         0.
     6.3162         0.    0.94561         0.
     6.3455         0.    0.93454         0.
     6.3603         0.    0.90123         0.
     6.3747         0.    0.93181         0.
     6.3843         0.    0.96238         0.
     6.3991         0.    0.92351         0.
     6.4089         0.    0.91519         0.
     6.4187         0.    0.89298         0.
     6.4235         0.    0.91521         0.
     6.4283         0.    0.92911         0.
     6.4429         0.    0.93468         0.
     6.4527         0.    0.91247         0.
     6.4575         0.    0.93193         0.
     6.4721         0.    0.94584         0.
      6.477         0.    0.92918         0.
     6.4868         0.    0.92086         0.
     6.4965         0.    0.92365         0.
     6.5064         0.    0.89866         0.
     6.5261         0.    0.84591         0.
     6.5308         0.    0.89314         0.
     6.5403         0.    0.94593         0.
     6.5454         0.    0.89316         0.
     6.5552         0.    0.86818         0.
     6.5649         0.    0.89041         0.
     6.5746         0.    0.89598         0.
     6.5844         0.    0.88488         0.
      6.594         0.    0.89601         0.
     6.6089         0.    0.84881         0.
     6.6283         0.    0.86273         0.
     6.6331         0.    0.88218         0.
     6.6379         0.    0.88774         0.
     6.6429         0.    0.86275         0.
     6.6624         0.    0.86555         0.
      6.677         0.    0.85168         0.
     6.6917         0.    0.84337         0.
     6.6968         0.    0.78782         0.
     6.7063         0.    0.84061         0.
     6.7114         0.    0.78507         0.
     6.7208         0.    0.86008         0.
     6.7307         0.    0.83787         0.
     6.7453         0.    0.83789         0.
     6.7454         0.    0.81289         0.
     6.7599         0.    0.83514         0.
     6.7649         0.    0.80736         0.
     6.7794         0.    0.83516         0.
      6.794         0.    0.84074         0.
     6.8134         0.    0.84077         0.
     6.8279         0.    0.86579         0.
     6.8329         0.    0.83802         0.
     6.8379         0.     0.8158         0.
     6.8427         0.    0.84081         0.
     6.8525         0.    0.81582         0.
     6.8573         0.    0.84083         0.
     6.8669         0.    0.86029         0.
     6.8719         0.    0.84085         0.
     6.8769         0.    0.81586         0.
     6.8866         0.    0.81032         0.
     6.8963         0.    0.81589         0.
     6.9009         0.    0.87978         0.
      6.906         0.    0.84368         0.
     6.9104         0.    0.94924         0.
     6.9155         0.    0.89925         0.
     6.9206         0.    0.84925         0.
     6.9301         0.    0.89649         0.
     6.9497         0.    0.86874         0.
     6.9547         0.    0.84652         0.
     6.9694         0.    0.81599         0.
     6.9741         0.    0.84655         0.
     6.9789         0.      0.866         0.
     6.9837         0.     0.8799         0.
     6.9887         0.    0.86602         0.
     6.9983         0.    0.88548         0.
     7.0034         0.    0.84659         0.
     7.0081         0.    0.88271         0.
     7.0177         0.    0.89662         0.
     7.0275         0.    0.88274         0.
     7.0373         0.    0.87442         0.
     7.0523         0.    0.79389         0.
     7.0569         0.    0.84667         0.
     7.0621         0.    0.78557         0.
     7.0667         0.    0.84391         0.
     7.0768         0.    0.76614         0.
     7.0813         0.    0.84115         0.
     7.0912         0.    0.80505         0.
      7.096         0.     0.8245         0.
     7.1008         0.    0.84118         0.
     7.1057         0.    0.83563         0.
     7.1106         0.    0.82175         0.
     7.1204         0.    0.80509         0.
     7.1252         0.    0.82177         0.
     7.1301         0.    0.80789         0.
     7.1399         0.    0.79957         0.
EndData:
