Comment: Data were digitized. Energy digitizing error is 2.462 keV
         data digitizing error is 0.001.
         Data are given as Rutherford ratio.
         Angle was converted from the center-of mass to the laboratory system.       
  

Version: R33
Source: D.Frekers et al. Nuclear Physics A v.394 (1983) 189
Name: Elena Kamskaya
Address1: All-Russia Scientific Research Institute of Experimental Physics
Address2: 607190, Mira, 37, Sarov, Nizhni Novgorod reg., Russia
Address3: tel: (831-30) 2-77-79   fax:( 831-30) 4-55-69
Address4: e-mail: kamskaya@expd.vniief.ru
Serial Number: 
SubFile: 
X4Number: F1042007
Reaction: 41Ca(a,a0)41Ca 
Distribution: Energy
Composition: 
Masses:    4.000,   41.000,    4.000,   41.000
Zeds: 2, 20, 2, 20
Qvalue:       0.00,      0.00,      0.00,      0.00,      0.00
Theta:   176.01
Sigfactors: 1.00, 0.00 
Enfactors: 1000.00, 0.00, 0.00, 0.00
Units: rr
Data:
     5.6113         0.    0.99438         0.
     5.6306         0.    0.98876         0.
       5.65         0.    0.99719         0.
     5.6645         0.    0.94944         0.
      5.679         0.    0.92697         0.
     5.6984         0.    0.93258         0.
     5.7081         0.    0.94382         0.
     5.7129         0.    0.91854         0.
     5.7323         0.     0.9382         0.
      5.771         0.    0.94101         0.
     5.7806         0.    0.95506         0.
        5.8         0.    0.92697         0.
     5.8145         0.    0.86798         0.
      5.829         0.    0.94944         0.
     5.8435         0.    0.94944         0.
     5.8581         0.     0.9073         0.
     5.8629         0.     0.9382         0.
     5.8726         0.     0.9073         0.
     5.8871         0.    0.95787         0.
     5.9065         0.    0.94101         0.
     5.9113         0.    0.91292         0.
     5.9161         0.    0.88202         0.
     5.9306         0.    0.94382         0.
     5.9403         0.    0.91854         0.
     5.9548         0.    0.89326         0.
     5.9597         0.     0.9382         0.
      5.979         0.    0.89045         0.
     5.9887         0.    0.93539         0.
     5.9935         0.    0.87921         0.
     5.9984         0.    0.86236         0.
     6.0226         0.    0.84551         0.
     6.0323         0.    0.86517         0.
     6.0565         0.    0.88483         0.
     6.0613         0.    0.90169         0.
     6.0806         0.     0.9073         0.
     6.0952         0.    0.89607         0.
        6.1         0.    0.91292         0.
     6.1194         0.    0.91573         0.
     6.1339         0.    0.87921         0.
     6.1484         0.    0.92697         0.
     6.1532         0.    0.89045         0.
     6.1581         0.     0.8736         0.
     6.1726         0.    0.89045         0.
     6.1823         0.    0.83989         0.
     6.1968         0.    0.89607         0.
     6.2016         0.    0.85112         0.
     6.2258         0.    0.83989         0.
     6.2452         0.    0.85393         0.
     6.2597         0.    0.89607         0.
     6.2645         0.    0.86236         0.
     6.2742         0.    0.83146         0.
     6.2839         0.    0.89607         0.
     6.2935         0.    0.91011         0.
     6.3081         0.    0.89045         0.
     6.3274         0.    0.88202         0.
     6.3468         0.    0.75843         0.
     6.3516         0.    0.82022         0.
     6.3661         0.    0.85393         0.
     6.3806         0.    0.80899         0.
     6.3903         0.    0.87921         0.
     6.3952         0.    0.82584         0.
        6.4         0.    0.78933         0.
     6.4097         0.    0.82865         0.
     6.4242         0.       0.75         0.
     6.4484         0.    0.82303         0.
     6.4677         0.    0.85955         0.
     6.4726         0.     0.8118         0.
     6.4774         0.    0.76124         0.
     6.4919         0.    0.82022         0.
     6.4968         0.    0.73315         0.
     6.5065         0.    0.80337         0.
     6.5161         0.    0.84831         0.
     6.5306         0.    0.77247         0.
     6.5355         0.    0.83708         0.
     6.5597         0.    0.92416         0.
     6.5694         0.     0.8427         0.
     6.5694         0.    0.76966         0.
     6.5742         0.    0.71629         0.
     6.5887         0.    0.80899         0.
     6.5935         0.    0.84551         0.
     6.5984         0.    0.81461         0.
     6.6032         0.    0.82584         0.
     6.6081         0.    0.77809         0.
     6.6226         0.    0.78371         0.
     6.6274         0.    0.77247         0.
     6.6323         0.    0.74719         0.
     6.6468         0.    0.79775         0.
     6.6516         0.    0.76404         0.
     6.6565         0.    0.73034         0.
     6.6613         0.    0.67416         0.
      6.671         0.    0.72191         0.
     6.6855         0.    0.66573         0.
     6.6903         0.     0.7191         0.
        6.7         0.    0.85674         0.
     6.7048         0.    0.79775         0.
     6.7145         0.    0.85674         0.
     6.7194         0.     0.7191         0.
     6.7242         0.    0.73876         0.
     6.7339         0.    0.71629         0.
     6.7387         0.    0.76966         0.
     6.7484         0.    0.83708         0.
     6.7581         0.    0.79775         0.
     6.7677         0.    0.75843         0.
     6.7774         0.    0.72472         0.
     6.7871         0.    0.75843         0.
     6.7919         0.     0.7809         0.
     6.8065         0.    0.81461         0.
     6.8113         0.    0.77809         0.
     6.8161         0.    0.70225         0.
     6.8355         0.    0.78652         0.
       6.85         0.    0.70787         0.
     6.8597         0.    0.77809         0.
     6.8742         0.    0.69663         0.
      6.879         0.    0.73876         0.
     6.8887         0.    0.82584         0.
     6.8984         0.    0.85955         0.
     6.9081         0.    0.83427         0.
     6.9129         0.    0.78371         0.
     6.9177         0.    0.70787         0.
     6.9274         0.    0.77247         0.
     6.9371         0.    0.82865         0.
     6.9468         0.    0.79213         0.
     6.9516         0.    0.72472         0.
     6.9565         0.    0.65449         0.
     6.9661         0.    0.64045         0.
     6.9758         0.    0.75281         0.
     6.9806         0.    0.69382         0.
     6.9855         0.     0.7191         0.
     6.9903         0.     0.6882         0.
     7.0097         0.    0.84551         0.
     7.0145         0.    0.76685         0.
     7.0194         0.    0.82022         0.
     7.0242         0.    0.73596         0.
     7.0339         0.    0.71348         0.
     7.0435         0.    0.74438         0.
     7.0532         0.    0.71629         0.
     7.0581         0.    0.75281         0.
     7.0677         0.    0.69663         0.
     7.0726         0.    0.75281         0.
     7.0823         0.    0.76966         0.
     7.0919         0.    0.73315         0.
     7.0968         0.    0.83989         0.
     7.1113         0.    0.69663         0.
     7.1161         0.    0.60393         0.
     7.1258         0.    0.63764         0.
     7.1306         0.     0.5618         0.
     7.1355         0.    0.64326         0.
EndData:
