Comment: Data were digitized. Energy digitizing error is 1.745 keV
         data digitizing error is 0.001.
         Data are given as Rutherford ratio.
         Angle was converted from the center-of mass to the laboratory system.       
  
Version: R33
Source: D.Frekers et al. Nuclear Physics A v.394 (1983) 189
Name: Elena Kamskaya
Address1: All-Russia Scientific Research Institute of Experimental Physics
Address2: 607190, Mira, 37, Sarov, Nizhni Novgorod reg., Russia
Address3: tel: (831-30) 2-77-79   fax:( 831-30) 4-55-69
Address4: e-mail: kamskaya@expd.vniief.ru
Serial Number: 
SubFile: 
X4Number: F1042007
Reaction: 41Ca(a,a0)41Ca 
Distribution: Energy
Composition: 
Masses:    4.000,   41.000,    4.000,   41.000
Zeds: 2, 20, 2, 20
Qvalue:       0.00,      0.00,      0.00,      0.00,      0.00
Theta:   125.97
Sigfactors: 1.00, 0.00 
Enfactors: 1000.00, 0.00, 0.00, 0.00
Units: rr
Data:
     5.6137         0.     1.0111         0.
      5.628         0.     1.0441         0.
     5.6425         0.     1.0194         0.
     5.6571         0.    0.96171         0.
     5.6715         0.    0.95348         0.
     5.6859         0.    0.96174         0.
     5.6954         0.    0.99747         0.
     5.7052         0.    0.95901         0.
     5.7148         0.    0.94254         0.
     5.7244         0.    0.95904         0.
     5.7291         0.    0.98651         0.
     5.7388         0.    0.95356         0.
     5.7486         0.    0.92335         0.
     5.7677         0.    0.95359         0.
     5.7772         0.    0.97558         0.
     5.7822         0.    0.93163         0.
     5.7871         0.    0.89867         0.
     5.7966         0.    0.93439         0.
     5.8061         0.    0.97561         0.
     5.8254         0.    0.94541         0.
     5.8446         0.    0.94818         0.
     5.8639         0.     0.9482         0.
     5.8686         0.    0.97568         0.
     5.8877         0.    0.99493         0.
     5.8974         0.     0.9812         0.
     5.9216         0.    0.94552         0.
     5.9264         0.    0.93179         0.
      5.936         0.    0.95377         0.
     5.9503         0.    0.98126         0.
     5.9554         0.    0.90435         0.
     5.9648         0.    0.96754         0.
     5.9743         0.    0.98404         0.
      5.984         0.    0.96756         0.
     5.9986         0.    0.92088         0.
      6.008         0.     0.9621         0.
     6.0177         0.    0.94288         0.
     6.0226         0.    0.92365         0.
      6.037         0.    0.91817         0.
      6.042         0.    0.86049         0.
     6.0563         0.    0.92369         0.
     6.0612         0.    0.87699         0.
     6.0755         0.    0.91821         0.
     6.0803         0.     0.9347         0.
     6.0947         0.    0.93747         0.
     6.0996         0.    0.91549         0.
     6.1188         0.    0.91277         0.
     6.1429         0.    0.89631         0.
     6.1573         0.    0.90732         0.
     6.1669         0.    0.91282         0.
     6.1764         0.    0.93206         0.
     6.1861         0.    0.92383         0.
     6.1958         0.    0.88813         0.
     6.2198         0.    0.91288         0.
     6.2294         0.    0.89366         0.
     6.2439         0.    0.89093         0.
     6.2534         0.    0.90742         0.
     6.2631         0.     0.8882         0.
     6.2728         0.    0.86623         0.
     6.2871         0.    0.91295         0.
     6.2917         0.    0.95142         0.
     6.3013         0.    0.98165         0.
     6.3063         0.    0.91572         0.
     6.3111         0.    0.89924         0.
     6.3161         0.    0.86903         0.
     6.3207         0.    0.93222         0.
     6.3257         0.    0.87454         0.
     6.3303         0.    0.93498         0.
     6.3353         0.    0.87729         0.
       6.34         0.    0.89928         0.
     6.3497         0.    0.87181         0.
     6.3594         0.    0.85259         0.
     6.3688         0.    0.91579         0.
     6.3738         0.    0.86635         0.
     6.3784         0.    0.90481         0.
     6.3882         0.    0.86636         0.
     6.3977         0.    0.90758         0.
     6.4026         0.    0.86638         0.
     6.4076         0.    0.81968         0.
     6.4122         0.    0.86364         0.
     6.4171         0.    0.83343         0.
     6.4265         0.    0.89388         0.
     6.4363         0.    0.84993         0.
     6.4413         0.    0.79774         0.
     6.4507         0.     0.8527         0.
     6.4556         0.    0.82523         0.
     6.4603         0.     0.8582         0.
     6.4652         0.    0.84172         0.
     6.4747         0.    0.86371         0.
     6.4796         0.     0.8335         0.
     6.4892         0.    0.85823         0.
     6.4941         0.    0.81153         0.
     6.4988         0.    0.86374         0.
     6.5135         0.    0.78134         0.
     6.5375         0.    0.78136         0.
     6.5471         0.    0.78961         0.
     6.5565         0.    0.85281         0.
     6.5662         0.     0.8281         0.
     6.5758         0.    0.84184         0.
     6.5902         0.    0.84461         0.
     6.5949         0.    0.87209         0.
     6.6046         0.    0.84188         0.
     6.6096         0.    0.80067         0.
     6.6143         0.    0.81991         0.
     6.6287         0.    0.82267         0.
      6.648         0.    0.79522         0.
     6.6626         0.    0.76502         0.
     6.6963         0.    0.75406         0.
     6.7009         0.    0.80077         0.
     6.7056         0.    0.84474         0.
     6.7202         0.    0.78431         0.
     6.7299         0.    0.76234         0.
     6.7346         0.    0.78433         0.
     6.7393         0.    0.80631         0.
     6.7443         0.    0.77335         0.
     6.7489         0.    0.82555         0.
     6.7539         0.    0.77611         0.
     6.7589         0.    0.72117         0.
     6.7683         0.    0.77887         0.
     6.7875         0.    0.79263         0.
     6.7924         0.    0.76791         0.
     6.8018         0.    0.82561         0.
     6.8068         0.    0.77067         0.
     6.8113         0.    0.84485         0.
     6.8212         0.    0.77893         0.
     6.8355         0.    0.81466         0.
     6.8404         0.    0.77346         0.
     6.8454         0.      0.735         0.
     6.8596         0.    0.78721         0.
     6.8691         0.    0.83393         0.
     6.8741         0.      0.768         0.
      6.879         0.    0.72954         0.
     6.8837         0.     0.7735         0.
     6.8886         0.    0.74878         0.
      6.898         0.    0.80099         0.
     6.9076         0.     0.8065         0.
     6.9125         0.    0.79002         0.
     6.9174         0.    0.74607         0.
     6.9269         0.    0.79278         0.
     6.9364         0.    0.82576         0.
      6.951         0.    0.77907         0.
     6.9607         0.    0.75436         0.
      6.975         0.     0.7736         0.
     6.9799         0.    0.74888         0.
       6.98         0.    0.72141         0.
     6.9897         0.    0.69395         0.
     6.9944         0.    0.73242         0.
     7.0039         0.    0.77364         0.
     7.0088         0.    0.72969         0.
     7.0231         0.     0.7819         0.
     7.0377         0.    0.71323         0.
     7.0426         0.     0.6995         0.
     7.0521         0.    0.73523         0.
     7.0618         0.    0.71051         0.
     7.0762         0.    0.71053         0.
     7.0953         0.    0.74901         0.
      7.134         0.    0.66664         0.
EndData:
