Comment: Data were digitized. Energy digitizing error is 1.046 keV
         data digitizing error is 0.001.
         Data are given as Rutherford ratio.
         Angle was converted from the center-of mass to the laboratory system.       
  

Version: R33
Source: D.Frekers et al. Nuclear Physics A v.394 (1983) 189
Name: Elena Kamskaya
Address1: All-Russia Scientific Research Institute of Experimental Physics
Address2: 607190, Mira, 37, Sarov, Nizhni Novgorod reg., Russia
Address3: tel: (831-30) 2-77-79   fax:( 831-30) 4-55-69
Address4: e-mail: kamskaya@expd.vniief.ru
Serial Number: 
SubFile: 
X4Number: F1042007
Reaction: 41Ca(a,a0)41Ca 
Distribution: Energy
Composition: 
Masses:    4.000,   41.000,    4.000,   41.000
Zeds: 2, 20, 2, 20
Qvalue:       0.00,      0.00,      0.00,      0.00,      0.00
Theta:   115.97
Sigfactors: 1.00, 0.00 
Enfactors: 1000.00, 0.00, 0.00, 0.00
Units: rr
Data:
     5.6053         0.    0.99735         0.
     5.6102         0.     1.0058         0.
       5.62         0.    0.99456         0.
     5.6396         0.    0.97492         0.
     5.6493         0.    0.98898         0.
     5.6593         0.    0.94967         0.
      5.669         0.    0.96373         0.
     5.6985         0.    0.92726         0.
      5.713         0.    0.94975         0.
     5.7178         0.     0.9638         0.
     5.7374         0.    0.96664         0.
     5.7521         0.    0.95823         0.
     5.7568         0.    0.98352         0.
     5.7666         0.    0.99196         0.
     5.7764         0.    0.98074         0.
     5.7813         0.    0.97513         0.
      5.796         0.    0.97234         0.
     5.8107         0.    0.96675         0.
     5.8204         0.    0.97238         0.
     5.8302         0.    0.96397         0.
     5.8401         0.    0.94713         0.
     5.8499         0.    0.93029         0.
     5.8547         0.    0.95557         0.
     5.8647         0.    0.91064         0.
     5.8694         0.    0.95279         0.
      5.884         0.    0.95843         0.
     5.8888         0.    0.96967         0.
     5.8936         0.    0.99215         0.
     5.9033         0.     1.0062         0.
     5.9083         0.    0.98936         0.
     5.9181         0.    0.97252         0.
     5.9377         0.    0.97817         0.
     5.9475         0.    0.95009         0.
     5.9527         0.     0.8883         0.
     5.9671         0.    0.95293         0.
     5.9866         0.    0.95296         0.
     5.9963         0.    0.97544         0.
     6.0013         0.    0.94736         0.
     6.0159         0.    0.96704         0.
     6.0209         0.    0.94458         0.
     6.0308         0.     0.9165         0.
     6.0453         0.    0.94461         0.
      6.055         0.    0.95306         0.
     6.0746         0.    0.94466         0.
     6.0845         0.    0.92782         0.
     6.0941         0.     0.9503         0.
     6.1087         0.    0.95875         0.
     6.1235         0.    0.93911         0.
     6.1284         0.    0.92507         0.
     6.1332         0.    0.94474         0.
     6.1383         0.    0.91104         0.
     6.1478         0.    0.95881         0.
     6.1575         0.    0.97287         0.
     6.1771         0.    0.95885         0.
     6.1822         0.    0.92796         0.
     6.1921         0.    0.89707         0.
     6.2018         0.    0.91675         0.
     6.2162         0.     0.9561         0.
     6.2212         0.    0.93363         0.
     6.2408         0.    0.92524         0.
     6.2603         0.    0.93369         0.
     6.2653         0.    0.90561         0.
     6.2749         0.    0.94214         0.
     6.2798         0.      0.959         0.
     6.2896         0.    0.93373         0.
     6.3092         0.    0.93095         0.
     6.3287         0.    0.94503         0.
     6.3434         0.    0.91977         0.
     6.3483         0.    0.93663         0.
     6.3629         0.    0.94788         0.
     6.3728         0.    0.91419         0.
     6.3827         0.    0.89173         0.
     6.3973         0.    0.88895         0.
     6.4119         0.    0.90863         0.
     6.4263         0.    0.96764         0.
     6.4363         0.    0.90305         0.
     6.4414         0.    0.87496         0.
      6.451         0.    0.89745         0.
      6.461         0.    0.85533         0.
     6.4754         0.    0.91153         0.
     6.4805         0.     0.8694         0.
      6.495         0.    0.90313         0.
        6.5         0.    0.86943         0.
     6.5051         0.     0.8273         0.
     6.5244         0.    0.88913         0.
     6.5441         0.    0.84702         0.
     6.5489         0.     0.8695         0.
     6.5585         0.    0.89199         0.
     6.5733         0.    0.86392         0.
      6.583         0.    0.88079         0.
     6.5975         0.    0.92575         0.
     6.6026         0.    0.87801         0.
     6.6125         0.    0.84993         0.
     6.6172         0.    0.88646         0.
      6.627         0.    0.87523         0.
      6.632         0.    0.84715         0.
      6.637         0.     0.8275         0.
     6.6516         0.    0.84999         0.
     6.6565         0.    0.83033         0.
     6.6713         0.    0.80226         0.
      6.681         0.    0.83037         0.
     6.6909         0.     0.8051         0.
     6.6961         0.    0.72084         0.
     6.7055         0.    0.81074         0.
      6.715         0.    0.87536         0.
     6.7202         0.    0.80234         0.
       6.73         0.    0.79673         0.
     6.7349         0.    0.77708         0.
     6.7447         0.    0.77147         0.
     6.7544         0.    0.79677         0.
     6.7641         0.    0.80802         0.
      6.774         0.    0.79118         0.
     6.7888         0.    0.76311         0.
     6.7935         0.     0.7884         0.
     6.8032         0.    0.81931         0.
     6.8082         0.    0.78842         0.
     6.8178         0.    0.81933         0.
     6.8229         0.    0.76878         0.
     6.8277         0.    0.79126         0.
     6.8328         0.    0.74913         0.
     6.8375         0.    0.78846         0.
     6.8569         0.    0.81377         0.
     6.8815         0.    0.78572         0.
     6.8866         0.    0.73797         0.
      6.896         0.    0.81383         0.
     6.9058         0.    0.80261         0.
     6.9204         0.    0.81667         0.
     6.9302         0.    0.82792         0.
     6.9348         0.    0.89534         0.
     6.9448         0.    0.83637         0.
     6.9597         0.    0.78583         0.
     6.9647         0.    0.76056         0.
      6.984         0.    0.80553         0.
      6.989         0.    0.78587         0.
     6.9989         0.     0.7578         0.
     7.0036         0.    0.79994         0.
     7.0135         0.    0.76344         0.
     7.0182         0.      0.814         0.
      7.033         0.    0.76627         0.
     7.0429         0.     0.7382         0.
     7.0576         0.    0.72698         0.
     7.0676         0.    0.68486         0.
     7.0819         0.    0.76073         0.
     7.0916         0.     0.7804         0.
     7.0966         0.    0.74951         0.
     7.1063         0.    0.78323         0.
     7.1113         0.    0.74672         0.
     7.1161         0.     0.7692         0.
     7.1212         0.    0.71584         0.
     7.1262         0.     0.7018         0.
EndData:
