Comment:    Automatically converted from EXFOR on 2020-04-07,18:46:58
            by the IAEA-NDS EXFOR Web-Retrieval System
            program ver-2019-12-10 (V.Zerkin).
            X4Title: "Cross section for 165 degree backscattering of 2.0-9.0
                      MeV He-4 ions from carbon."
            X4Author: Ye Feng,  Zhuying Zhou,  Yingyao Zhou,  Guoqing Zhao
            EXFOR: O0879002    Created: 2001-06-13  Updated: 2005-09-26
            X4Reaction:6-C-0(A,EL)6-C-0,,DA,,RTH; X4Points:238
            ENSDF:LevelEnergy=0.00
            Systematic uncertainty: ErrSys=2.45%  Min=1.0%  Max=5.56%
            AME2016: M1=4.002603254 M2=12.0107 M3=4.002603254 M4=12.0107

Version:      R33
X4Number:     O0879002 20050926
Source:       Ye Feng+(1994), Jour. Nucl. Instrum. Methods in Physics Res., Sect.B, Vol.86, p.225
Reaction:     natC(a,a0)natC
Distribution: Energy
Sigfactors:   1.00, 0.0245
Enfactors:    1.00, 0.00, 0.00, 0.00
Units:        rr
Composition:
Masses:       4.0, 12.011, 4.0, 12.011
Zeds:         2, 6, 2, 6
Qvalue:       0.0, 0.00, 0.00, 0.00, 0.00
Theta:        165
Data:
     1.81,      9.00,      0.97,      0.00
     1.86,      9.00,      1.04,      0.00
     2.00,      9.00,      1.00,      0.00
    2.041,      9.00,      0.96,      0.00
    2.091,      9.00,      1.02,      0.00
    2.191,      9.00,      0.96,      0.00
    2.241,      9.00,      0.95,      0.00
    2.291,      9.00,      1.00,      0.00
    2.341,      9.00,      0.94,      0.00
    2.441,      9.00,      0.91,      0.00
    2.491,      9.00,      0.92,      0.00
    2.592,      9.00,      0.72,      0.00
    2.642,      9.00,      0.64,      0.00
    2.692,      9.00,      0.54,      0.00
    2.722,      9.00,      0.47,      0.00
    2.782,      9.00,      0.37,      0.00
    2.812,      9.00,      0.33,      0.00
    2.842,      9.00,      0.25,      0.00
    2.872,      9.00,      0.22,      0.00
    2.902,      9.00,      0.18,      0.00
    2.932,      9.00,      0.19,      0.00
    2.962,      9.00,      0.22,      0.00
    2.992,      9.00,      0.30,      0.00
    3.042,      9.00,      0.73,      0.00
    3.092,      9.00,      1.42,      0.00
    3.142,      9.00,      2.55,      0.00
    3.192,      9.00,      3.55,      0.00
    3.242,      9.00,      4.34,      0.00
    3.293,      9.00,      5.05,      0.00
    3.343,      9.00,      5.49,      0.00
    3.393,      9.00,      5.80,      0.00
    3.493,      9.00,      5.93,      0.00
    3.503,      9.00,      5.84,      0.00
    3.513,      9.00,      5.97,      0.00
    3.523,      9.00,      5.96,      0.00
    3.533,      9.00,      5.82,      0.00
    3.543,      9.00,      5.95,      0.00
    3.563,      9.00,      5.39,      0.00
    3.573,      9.00,      6.04,      0.00
    3.583,      9.00,      7.00,      0.00
    3.593,      9.00,      6.36,      0.00
    3.603,      9.00,      6.27,      0.00
    3.613,      9.00,      6.66,      0.00
    3.743,      9.00,      6.73,      0.00
    3.793,      9.00,      6.61,      0.00
    3.843,      9.00,      6.73,      0.00
    3.893,      9.00,      6.56,      0.00
    3.943,      9.00,      6.70,      0.00
    3.994,      9.00,      6.58,      0.00
    4.044,      9.00,      6.94,      0.00
    4.094,      9.00,      5.78,      0.00
    4.154,      9.00,      5.18,      0.00
    4.174,      9.00,      5.66,      0.00
    4.194,      9.00,      6.65,      0.00
    4.204,      9.00,      8.30,      0.00
    4.214,      9.00,     11.40,      0.00
    4.218,      9.00,     12.10,      0.00
    4.222,      9.00,     13.20,      0.00
    4.226,      9.00,     15.10,      0.00
     4.23,      9.00,     17.60,      0.00
    4.234,      9.00,     24.30,      0.00
    4.236,      9.00,     26.80,      0.00
    4.238,      9.00,     31.80,      0.00
     4.24,      9.00,     37.60,      0.00
    4.242,      9.00,     41.20,      0.00
    4.244,      9.00,     50.40,      0.00
    4.246,      9.00,     54.70,      0.00
     4.25,      9.00,     72.10,      0.00
    4.252,      9.00,     78.30,      0.00
    4.254,      9.00,     88.90,      0.00
    4.256,      9.00,     96.30,      0.00
    4.258,      9.00,    110.00,      0.00
    4.262,      9.00,    126.00,      0.00
    4.266,      9.00,    128.00,      0.00
    4.268,      9.00,    126.00,      0.00
     4.27,      9.00,    115.00,      0.00
    4.272,      9.00,    101.00,      0.00
    4.274,      9.00,     97.40,      0.00
    4.278,      9.00,     84.60,      0.00
    4.282,      9.00,     75.70,      0.00
    4.284,      9.00,     72.40,      0.00
    4.288,      9.00,     62.90,      0.00
    4.296,      9.00,     52.60,      0.00
    4.312,      9.00,     36.40,      0.00
     4.32,      9.00,     33.30,      0.00
    4.324,      9.00,     29.80,      0.00
    4.334,      9.00,     26.70,      0.00
    4.344,      9.00,     25.10,      0.00
    4.354,      9.00,     24.10,      0.00
    4.374,      9.00,     22.10,      0.00
    4.394,      9.00,     20.80,      0.00
    4.474,      9.00,     20.00,      0.00
    4.494,      9.00,     19.50,      0.00
    4.544,      9.00,     20.10,      0.00
    4.594,      9.00,     21.40,      0.00
    4.644,      9.00,     21.30,      0.00
    4.694,      9.00,     22.50,      0.00
    4.894,      9.00,     30.40,      0.00
    4.995,      9.00,     36.90,      0.00
    5.115,      9.00,     48.10,      0.00
    5.175,      9.00,     55.10,      0.00
    5.205,      9.00,     56.20,      0.00
    5.235,      9.00,     61.50,      0.00
     5.25,      9.00,     69.30,      0.00
     5.28,      9.00,     68.20,      0.00
    5.325,      9.00,     73.20,      0.00
    5.475,      9.00,     96.10,      0.00
    5.535,      9.00,    103.00,      0.00
    5.595,      9.00,    115.00,      0.00
    5.655,      9.00,    121.00,      0.00
    5.685,      9.00,    123.00,      0.00
     5.70,      9.00,    120.00,      0.00
    5.715,      9.00,    121.00,      0.00
     5.73,      9.00,    120.00,      0.00
    5.745,      9.00,    118.00,      0.00
    5.768,      9.00,    104.00,      0.00
    5.777,      9.00,     91.60,      0.00
     5.78,      9.00,     83.80,      0.00
    5.789,      9.00,     71.00,      0.00
    5.792,      9.00,     68.20,      0.00
    5.795,      9.00,     61.20,      0.00
    5.798,      9.00,     58.60,      0.00
    5.801,      9.00,     51.70,      0.00
    5.804,      9.00,     48.20,      0.00
    5.807,      9.00,     42.80,      0.00
     5.81,      9.00,     44.10,      0.00
    5.813,      9.00,     34.80,      0.00
    5.816,      9.00,     30.80,      0.00
    5.819,      9.00,     29.60,      0.00
    5.822,      9.00,     26.70,      0.00
    5.824,      9.00,     26.30,      0.00
    5.828,      9.00,     24.90,      0.00
    5.831,      9.00,     24.90,      0.00
    5.834,      9.00,     24.40,      0.00
    5.837,      9.00,     24.90,      0.00
     5.84,      9.00,     24.80,      0.00
    5.852,      9.00,     28.90,      0.00
    5.864,      9.00,     34.70,      0.00
    5.894,      9.00,     46.20,      0.00
    5.906,      9.00,     49.40,      0.00
    5.912,      9.00,     49.70,      0.00
    5.918,      9.00,     53.20,      0.00
     5.93,      9.00,     53.40,      0.00
    5.936,      9.00,     55.90,      0.00
    5.942,      9.00,     55.90,      0.00
    5.948,      9.00,     57.80,      0.00
     5.96,      9.00,     56.50,      0.00
     5.97,      9.00,     59.40,      0.00
    5.985,      9.00,     61.00,      0.00
     6.00,      9.00,     60.40,      0.00
    6.015,      9.00,     61.60,      0.00
    6.075,      9.00,     60.00,      0.00
    6.195,      9.00,     58.40,      0.00
    6.255,      9.00,     54.70,      0.00
    6.315,      9.00,     55.30,      0.00
    6.375,      9.00,     51.20,      0.00
    6.495,      9.00,     48.10,      0.00
    6.735,      9.00,     47.70,      0.00
     6.79,      9.00,     49.30,      0.00
     6.85,      9.00,     53.30,      0.00
     6.89,      9.00,     54.70,      0.00
     6.91,      9.00,     59.30,      0.00
     6.92,      9.00,     58.30,      0.00
     6.97,      9.00,     68.60,      0.00
    7.001,      9.00,     72.10,      0.00
    7.007,      9.00,     70.90,      0.00
    7.013,      9.00,     68.10,      0.00
    7.025,      9.00,     66.60,      0.00
    7.031,      9.00,     64.00,      0.00
    7.037,      9.00,     64.60,      0.00
    7.043,      9.00,     57.30,      0.00
    7.055,      9.00,     50.00,      0.00
    7.061,      9.00,     47.60,      0.00
    7.067,      9.00,     40.20,      0.00
    7.073,      9.00,     39.50,      0.00
    7.079,      9.00,     37.90,      0.00
    7.085,      9.00,     33.20,      0.00
    7.091,      9.00,     30.50,      0.00
    7.097,      9.00,     29.10,      0.00
    7.103,      9.00,     26.60,      0.00
    7.109,      9.00,     24.90,      0.00
    7.115,      9.00,     23.90,      0.00
     7.13,      9.00,     23.00,      0.00
    7.145,      9.00,     21.40,      0.00
    7.175,      9.00,     20.70,      0.00
     7.19,      9.00,     22.20,      0.00
     7.22,      9.00,     22.80,      0.00
     7.37,      9.00,     29.60,      0.00
     7.49,      9.00,     35.10,      0.00
     7.61,      9.00,     43.50,      0.00
     7.70,      9.00,     52.10,      0.00
     7.73,      9.00,     53.20,      0.00
     7.76,      9.00,     56.20,      0.00
    7.775,      9.00,     54.80,      0.00
     7.79,      9.00,     54.50,      0.00
     7.82,      9.00,     50.40,      0.00
    7.835,      9.00,     44.70,      0.00
     7.88,      9.00,     31.90,      0.00
     7.91,      9.00,     19.40,      0.00
     7.94,      9.00,      9.15,      0.00
     7.97,      9.00,      6.67,      0.00
     8.00,      9.00,      8.52,      0.00
    8.031,      9.00,      9.90,      0.00
    8.061,      9.00,      9.78,      0.00
    8.091,      9.00,      8.63,      0.00
    8.121,      9.00,      4.46,      0.00
    8.151,      9.00,      8.94,      0.00
    8.181,      9.00,     14.80,      0.00
    8.211,      9.00,     15.40,      0.00
    8.301,      9.00,     14.30,      0.00
    8.331,      9.00,     15.50,      0.00
    8.361,      9.00,     15.10,      0.00
    8.391,      9.00,     15.80,      0.00
    8.421,      9.00,     15.30,      0.00
    8.481,      9.00,     16.60,      0.00
    8.511,      9.00,     16.30,      0.00
    8.571,      9.00,     16.50,      0.00
    8.601,      9.00,     17.10,      0.00
    8.631,      9.00,     17.30,      0.00
    8.661,      9.00,     16.80,      0.00
    8.721,      9.00,     17.30,      0.00
    8.751,      9.00,     16.40,      0.00
    8.781,      9.00,     16.40,      0.00
    8.811,      9.00,     13.20,      0.00
    8.841,      9.00,      6.51,      0.00
    8.871,      9.00,      3.51,      0.00
    8.901,      9.00,      1.96,      0.00
    8.916,      9.00,      4.64,      0.00
    8.931,      9.00,     20.00,      0.00
    8.961,      9.00,     61.20,      0.00
    8.974,      9.00,     71.40,      0.00
    8.992,      9.00,     74.80,      0.00
    9.016,      9.00,     73.30,      0.00
    9.028,      9.00,     74.10,      0.00
     9.04,      9.00,     69.70,      0.00
    9.044,      9.00,     73.90,      0.00
    9.046,      9.00,     69.50,      0.00
    9.052,      9.00,     70.40,      0.00
EndData:
