Comment:    Automatically converted from EXFOR
            by IAEA-NDS EXFOR Web-Retrieval System (v-2008/11/03)
            "Backscattering cross section of 5.5 to 8 MeV alpha
             particles from carbon, oxygen and silicon."
            H.Yonezawa,  K.Shikano,  T.Shigematsu
            EXFOR: F0117003    Created: 2003-09-25  Updated: 2004-05-19
            X4Reaction:8-O-16(A,EL)8-O-16,,DA; X4Points:268

Version:      R33
X4Number:     F0117003
Source:       H.Yonezawa+(1994), Jour. Nucl. Instrum. Methods in Physics Res., Sect.B, Vol.88, p.207
Reaction:     16O(a,a0)16O
Distribution: Energy
Sigfactors:   1.00, 0.00
Enfactors:    1.00, 0.00, 0.00, 0.00
Units:        mb
Composition:
Masses:       4.0, 16.0, 4.0, 16.0
Zeds:         2, 8, 2, 8
Qvalue:       0.0, 0.00, 0.00, 0.00, 0.00
Theta:        169
Data:
 6023.50,     0.00,   99.049,     0.00
 6035.40,     0.00,   102.88,     0.00
 6047.40,     0.00,   104.82,     0.00
 6056.40,     0.00,   101.08,     0.00
 6071.50,     0.00,   99.248,     0.00
 6086.40,     0.00,   103.09,     0.00
 6098.40,     0.00,   106.93,     0.00
 6113.40,     0.00,   106.99,     0.00
 6125.30,     0.00,   110.82,     0.00
 6137.30,     0.00,   112.76,     0.00
 6152.30,     0.00,   112.83,     0.00
 6164.30,     0.00,   109.09,     0.00
 6176.30,     0.00,   112.93,     0.00
 6188.20,     0.00,   114.87,     0.00
 6197.20,     0.00,   116.80,     0.00
 6212.20,     0.00,   118.75,     0.00
 6227.20,     0.00,   118.81,     0.00
 6242.20,     0.00,   118.88,     0.00
 6254.10,     0.00,   124.60,     0.00
 6269.10,     0.00,   126.55,     0.00
 6284.00,     0.00,   130.40,     0.00
 6299.00,     0.00,   130.46,     0.00
 6311.00,     0.00,   136.19,     0.00
 6322.90,     0.00,   140.02,     0.00
 6334.90,     0.00,   141.96,     0.00
 6346.80,     0.00,   145.80,     0.00
 6358.80,     0.00,   153.42,     0.00
 6370.70,     0.00,   159.14,     0.00
 6379.60,     0.00,   164.85,     0.00
 6388.60,     0.00,   170.57,     0.00
 6400.50,     0.00,   174.40,     0.00
 6412.40,     0.00,   180.13,     0.00
 6421.40,     0.00,   187.73,     0.00
 6430.30,     0.00,   197.23,     0.00
 6436.20,     0.00,   204.82,     0.00
 6445.10,     0.00,   210.54,     0.00
 6451.00,     0.00,   218.13,     0.00
 6459.90,     0.00,   225.73,     0.00
 6468.80,     0.00,   235.23,     0.00
 6471.80,     0.00,   242.81,     0.00
 6477.60,     0.00,   254.19,     0.00
 6480.50,     0.00,   263.66,     0.00
 6486.40,     0.00,   273.15,     0.00
 6489.40,     0.00,   280.73,     0.00
 6495.30,     0.00,   290.21,     0.00
 6501.20,     0.00,   297.81,     0.00
 6504.10,     0.00,   307.28,     0.00
 6509.90,     0.00,   320.55,     0.00
 6515.80,     0.00,   331.92,     0.00
 6521.70,     0.00,   347.08,     0.00
 6524.40,     0.00,   367.91,     0.00
 6533.30,     0.00,   384.98,     0.00
 6536.00,     0.00,   407.69,     0.00
 6541.90,     0.00,   422.85,     0.00
 6544.70,     0.00,   434.22,     0.00
 6547.60,     0.00,   445.58,     0.00
 6556.40,     0.00,   464.54,     0.00
 6559.30,     0.00,   479.69,     0.00
 6568.20,     0.00,   485.40,     0.00
 6580.20,     0.00,   481.67,     0.00
 6586.40,     0.00,   464.66,     0.00
 6589.60,     0.00,   443.86,     0.00
 6595.90,     0.00,   415.51,     0.00
 6602.20,     0.00,   385.26,     0.00
 6605.60,     0.00,   351.22,     0.00
 6609.00,     0.00,   313.39,     0.00
 6615.30,     0.00,   279.36,     0.00
 6621.70,     0.00,   241.54,     0.00
 6625.10,     0.00,   207.50,     0.00
 6628.30,     0.00,   179.13,     0.00
 6637.70,     0.00,   147.00,     0.00
 6641.00,     0.00,   120.52,     0.00
 6647.20,     0.00,   97.845,     0.00
 6653.40,     0.00,    78.95,     0.00
 6653.50,     0.00,   65.705,     0.00
 6656.60,     0.00,   54.365,     0.00
 6662.70,     0.00,   46.822,     0.00
 6671.80,     0.00,   39.291,     0.00
 6680.90,     0.00,    31.76,     0.00
 6692.90,     0.00,   24.242,     0.00
 6708.00,     0.00,   18.628,     0.00
 6720.00,     0.00,   14.893,     0.00
 6735.00,     0.00,   14.955,     0.00
 6744.00,     0.00,   18.777,     0.00
 6749.90,     0.00,   24.477,     0.00
 6764.90,     0.00,   26.431,     0.00
 6770.80,     0.00,   34.024,     0.00
 6776.70,     0.00,   41.617,     0.00
 6782.60,     0.00,    49.21,     0.00
 6788.50,     0.00,   56.803,     0.00
 6794.50,     0.00,   64.396,     0.00
 6800.30,     0.00,   75.773,     0.00
 6809.30,     0.00,   81.486,     0.00
 6812.10,     0.00,   94.743,     0.00
 6818.00,     0.00,   109.90,     0.00
 6823.80,     0.00,   123.17,     0.00
 6826.70,     0.00,   138.32,     0.00
 6835.30,     0.00,   178.09,     0.00
 6835.50,     0.00,   157.28,     0.00
 6844.00,     0.00,   204.62,     0.00
 6849.70,     0.00,   229.24,     0.00
 6855.40,     0.00,   257.64,     0.00
 6858.00,     0.00,   293.60,     0.00
 6863.70,     0.00,   323.90,     0.00
 6869.30,     0.00,   359.88,     0.00
 6874.90,     0.00,   399.63,     0.00
 6880.60,     0.00,   433.71,     0.00
 6883.10,     0.00,   475.35,     0.00
 6885.70,     0.00,   515.10,     0.00
 6891.30,     0.00,   552.96,     0.00
 6897.10,     0.00,   577.58,     0.00
 6902.80,     0.00,   604.10,     0.00
 6911.50,     0.00,   634.41,     0.00
 6914.20,     0.00,   659.02,     0.00
 6920.10,     0.00,   674.18,     0.00
 6925.80,     0.00,   695.01,     0.00
 6931.70,     0.00,   710.17,     0.00
 6943.60,     0.00,   712.12,     0.00
 6952.70,     0.00,   704.59,     0.00
 6961.90,     0.00,   689.49,     0.00
 6967.90,     0.00,   681.94,     0.00
 6971.00,     0.00,   674.39,     0.00
 6977.20,     0.00,   653.60,     0.00
 6980.30,     0.00,   646.04,     0.00
 6986.50,     0.00,   623.36,     0.00
 6986.70,     0.00,   606.34,     0.00
 6989.90,     0.00,   593.10,     0.00
 6996.10,     0.00,   572.32,     0.00
 7002.20,     0.00,   555.31,     0.00
 7005.40,     0.00,   538.30,     0.00
 7011.60,     0.00,   519.40,     0.00
 7014.80,     0.00,   498.60,     0.00
 7024.10,     0.00,   474.04,     0.00
 7027.30,     0.00,   449.46,     0.00
 7033.60,     0.00,   423.00,     0.00
 7036.80,     0.00,   400.30,     0.00
 7043.10,     0.00,   373.84,     0.00
 7049.40,     0.00,   347.38,     0.00
 7052.70,     0.00,   317.12,     0.00
 7056.00,     0.00,   284.96,     0.00
 7065.40,     0.00,   250.94,     0.00
 7068.70,     0.00,   222.58,     0.00
 7072.00,     0.00,   190.42,     0.00
 7078.30,     0.00,   163.96,     0.00
 7084.50,     0.00,   141.28,     0.00
 7090.70,     0.00,   126.17,     0.00
 7099.80,     0.00,   116.75,     0.00
 7105.60,     0.00,   128.12,     0.00
 7108.60,     0.00,   135.70,     0.00
 7114.40,     0.00,   150.86,     0.00
 7119.90,     0.00,   194.41,     0.00
 7120.20,     0.00,   171.70,     0.00
 7128.70,     0.00,   219.04,     0.00
 7134.40,     0.00,   249.34,     0.00
 7137.10,     0.00,   273.95,     0.00
 7142.80,     0.00,   300.46,     0.00
 7148.50,     0.00,   326.97,     0.00
 7154.30,     0.00,   349.70,     0.00
 7160.10,     0.00,   366.75,     0.00
 7162.90,     0.00,   393.26,     0.00
 7168.70,     0.00,   410.31,     0.00
 7174.50,     0.00,   427.36,     0.00
 7177.30,     0.00,   444.40,     0.00
 7183.10,     0.00,   463.35,     0.00
 7186.00,     0.00,   478.50,     0.00
 7188.90,     0.00,   487.97,     0.00
 7194.70,     0.00,   503.13,     0.00
 7200.60,     0.00,   514.51,     0.00
 7203.50,     0.00,   523.98,     0.00
 7209.40,     0.00,   531.57,     0.00
 7215.30,     0.00,   542.95,     0.00
 7221.10,     0.00,   556.22,     0.00
 7227.00,     0.00,   563.81,     0.00
 7239.00,     0.00,   567.65,     0.00
 7245.10,     0.00,   556.32,     0.00
 7251.80,     0.00,   493.91,     0.00
 7255.30,     0.00,   444.73,     0.00
 7262.00,     0.00,   370.96,     0.00
 7265.90,     0.00,   287.72,     0.00
 7272.60,     0.00,   215.85,     0.00
 7282.10,     0.00,   166.70,     0.00
 7285.40,     0.00,   138.33,     0.00
 7288.50,     0.00,   130.77,     0.00
 7294.40,     0.00,   144.04,     0.00
 7297.20,     0.00,   159.19,     0.00
 7302.90,     0.00,   187.59,     0.00
 7308.30,     0.00,   244.38,     0.00
 7310.80,     0.00,   293.59,     0.00
 7319.20,     0.00,   348.49,     0.00
 7321.70,     0.00,   397.70,     0.00
 7327.20,     0.00,   446.91,     0.00
 7329.70,     0.00,   492.34,     0.00
 7332.40,     0.00,   526.41,     0.00
 7338.10,     0.00,   552.92,     0.00
 7346.80,     0.00,   585.12,     0.00
 7355.50,     0.00,   605.97,     0.00
 7358.40,     0.00,   617.33,     0.00
 7370.30,     0.00,   630.63,     0.00
 7376.20,     0.00,   638.22,     0.00
 7385.10,     0.00,   647.72,     0.00
 7393.90,     0.00,   662.89,     0.00
 7405.80,     0.00,   674.29,     0.00
 7423.80,     0.00,   678.15,     0.00
 7435.70,     0.00,   681.99,     0.00
 7450.60,     0.00,   687.72,     0.00
 7462.60,     0.00,   693.45,     0.00
 7480.60,     0.00,   691.63,     0.00
 7489.40,     0.00,   704.91,     0.00
 7507.40,     0.00,   712.56,     0.00
 7522.30,     0.00,   716.40,     0.00
 7528.20,     0.00,   724.00,     0.00
 7540.10,     0.00,   735.40,     0.00
 7552.00,     0.00,   743.01,     0.00
 7560.90,     0.00,   754.40,     0.00
 7572.70,     0.00,   769.59,     0.00
 7590.60,     0.00,   779.12,     0.00
 7599.80,     0.00,   765.92,     0.00
 7600.00,     0.00,   747.00,     0.00
 7609.30,     0.00,   712.98,     0.00
 7615.80,     0.00,   660.03,     0.00
 7619.60,     0.00,   584.36,     0.00
 7623.50,     0.00,   503.01,     0.00
 7630.50,     0.00,   406.54,     0.00
 7631.50,     0.00,   310.05,     0.00
 7641.30,     0.00,   228.73,     0.00
 7644.90,     0.00,   168.20,     0.00
 7651.40,     0.00,   128.49,     0.00
 7654.60,     0.00,   102.01,     0.00
 7660.80,     0.00,   85.009,     0.00
 7666.90,     0.00,   77.465,     0.00
 7684.80,     0.00,   81.324,     0.00
 7696.80,     0.00,    87.05,     0.00
 7708.70,     0.00,   96.559,     0.00
 7720.60,     0.00,   104.18,     0.00
 7735.50,     0.00,   108.02,     0.00
 7753.50,     0.00,   109.99,     0.00
 7768.50,     0.00,   104.38,     0.00
 7777.60,     0.00,   96.845,     0.00
 7792.70,     0.00,   89.339,     0.00
 7798.80,     0.00,   76.119,     0.00
 7808.00,     0.00,   62.912,     0.00
 7814.10,     0.00,   51.585,     0.00
 7826.10,     0.00,   45.958,     0.00
 7831.80,     0.00,   72.471,     0.00
 7843.40,     0.00,   110.36,     0.00
 7848.80,     0.00,   172.82,     0.00
 7851.00,     0.00,   244.73,     0.00
 7859.20,     0.00,   324.24,     0.00
 7861.60,     0.00,   379.12,     0.00
 7870.40,     0.00,   403.75,     0.00
 7870.50,     0.00,   396.18,     0.00
 7876.70,     0.00,   373.50,     0.00
 7880.00,     0.00,   347.03,     0.00
 7886.30,     0.00,   318.67,     0.00
 7892.50,     0.00,   297.88,     0.00
 7895.70,     0.00,   277.08,     0.00
 7904.80,     0.00,   261.98,     0.00
 7908.00,     0.00,   246.86,     0.00
 7914.10,     0.00,   233.64,     0.00
 7920.20,     0.00,   227.99,     0.00
 7923.30,     0.00,   212.87,     0.00
 7929.40,     0.00,   203.43,     0.00
 7935.60,     0.00,   192.10,     0.00
 7947.60,     0.00,   184.59,     0.00
 7959.70,     0.00,   175.17,     0.00
 7965.80,     0.00,   161.96,     0.00
 7969.20,     0.00,   131.70,     0.00
 7972.70,     0.00,   82.515,     0.00
EndData:
