Comment: Data were digitized. Energy digitizing error is 0.06 keV,
         data digitizing error is 0.0002 (relative units).
         Differential cross-sections are given in relative units.  
         
Version: R33
Source: L. Zolnai et al. Izvestiya Akademii Nauk v.44 (1980) 2281
Name: Sophiya Taova 
Address1: All-Russia Scientific Research Institute of Experimental Physics
Address2: 607190, Mira, 37, Sarov, Nizhni Novgorod reg., Russia
Address3: tel: (831-30) 2-77-79   fax:( 831-30) 4-55-69
Address4: e-mail: taova@expd.vniief.ru
Serial Number: 
SubFile: 
X4Number: F0925004 
Reaction:  19F(a,p0)22Ne
Distribution: Energy
Composition: 
Masses:    4.000,    19.000,    1.000,    22.000
Zeds: 2,  9,  1,  10
Qvalue:    1675.1,      0.00,      0.00,      0.00,      0.00
Theta:     170.0
Sigfactors:    1.00,  0.00
Enfactors: 1000.00, 0.00, 0.00, 0.00
Units: ru
Data:                   
     2.3019        0.0  3.503E-03        0.0
     2.3078        0.0  5.004E-03        0.0
     2.3137        0.0  6.005E-03        0.0
      2.318        0.0  2.301E-02        0.0
     2.3253        0.0  1.301E-02        0.0
     2.3312        0.0  4.008E-03        0.0
     2.3385        0.0  2.509E-03        0.0
     2.3488        0.0  2.010E-03        0.0
     2.3561        0.0  3.011E-03        0.0
     2.3663        0.0  2.513E-03        0.0
     2.3737        0.0  2.514E-03        0.0
     2.3839        0.0  2.016E-03        0.0
     2.3941        0.0  2.017E-03        0.0
        2.4        0.0  3.518E-03        0.0
     2.4044        0.0  6.019E-03        0.0
     2.4132        0.0  2.020E-03        0.0
     2.4205        0.0  4.021E-03        0.0
     2.4278        0.0  3.523E-03        0.0
      2.438        0.0  3.024E-03        0.0
     2.4454        0.0  2.525E-03        0.0
     2.4512        0.0  6.026E-03        0.0
     2.4615        0.0  2.528E-03        0.0
     2.4717        0.0  2.029E-03        0.0
     2.4819        0.0  2.031E-03        0.0
     2.4907        0.0  2.532E-03        0.0
     2.5039        0.0  2.534E-03        0.0
     2.5097        0.0  5.035E-03        0.0
     2.5141        0.0  1.204E-02        0.0
     2.5171        0.0  1.854E-02        0.0
     2.5214        0.0  3.304E-02        0.0
     2.5244        0.0  1.804E-02        0.0
     2.5288        0.0  8.538E-03        0.0
     2.5375        0.0  8.539E-03        0.0
      2.539        0.0  3.540E-03        0.0
     2.5463        0.0  3.041E-03        0.0
     2.5551        0.0  2.042E-03        0.0
      2.561        0.0  4.043E-03        0.0
     2.5668        0.0  5.044E-03        0.0
     2.5756        0.0  3.545E-03        0.0
     2.5771        0.0  7.545E-03        0.0
     2.5844        0.0  7.047E-03        0.0
     2.5888        0.0  1.555E-02        0.0
     2.5975        0.0  1.005E-02        0.0
     2.6049        0.0  1.305E-02        0.0
     2.6063        0.0  2.055E-02        0.0
     2.6151        0.0  2.255E-02        0.0
      2.618        0.0  3.355E-02        0.0
     2.6224        0.0  4.555E-02        0.0
     2.6312        0.0  4.205E-02        0.0
      2.637        0.0  3.906E-02        0.0
       2.64        0.0  2.906E-02        0.0
     2.6414        0.0  2.006E-02        0.0
     2.6488        0.0  1.456E-02        0.0
     2.6532        0.0  9.557E-03        0.0
     2.6634        0.0  6.559E-03        0.0
     2.6693        0.0  9.560E-03        0.0
     2.6766        0.0  5.561E-03        0.0
     2.6839        0.0  5.562E-03        0.0
     2.6897        0.0  6.563E-03        0.0
     2.6956        0.0  6.064E-03        0.0
     2.7015        0.0  5.564E-03        0.0
     2.7102        0.0  5.066E-03        0.0
     2.7161        0.0  8.067E-03        0.0
     2.7219        0.0  1.307E-02        0.0
     2.7263        0.0  2.707E-02        0.0
     2.7292        0.0  6.757E-02        0.0
      2.735        0.0     0.1036        0.0
     2.7423        0.0     0.1096        0.0
     2.7496        0.0  9.257E-02        0.0
     2.7541        0.0  2.857E-02        0.0
     2.7571        0.0  1.507E-02        0.0
     2.7658        0.0  1.057E-02        0.0
     2.7673        0.0  5.075E-03        0.0
     2.7732        0.0  5.075E-03        0.0
     2.7805        0.0  2.077E-03        0.0
     2.7922        0.0  1.578E-03        0.0
      2.801        0.0  4.080E-03        0.0
     2.8083        0.0  7.081E-03        0.0
     2.8112        0.0  1.308E-02        0.0
     2.8185        0.0  1.608E-02        0.0
     2.8214        0.0  1.208E-02        0.0
     2.8302        0.0  1.208E-02        0.0
     2.8317        0.0  6.584E-03        0.0
     2.8361        0.0  7.585E-03        0.0
     2.8478        0.0  4.087E-03        0.0
     2.8522        0.0  7.088E-03        0.0
     2.8566        0.0  9.588E-03        0.0
     2.8624        0.0  2.359E-02        0.0
     2.8741        0.0  1.609E-02        0.0
     2.8785        0.0  2.209E-02        0.0
     2.8814        0.0  3.409E-02        0.0
     2.8873        0.0  4.059E-02        0.0
     2.8931        0.0  2.159E-02        0.0
      2.899        0.0  1.510E-02        0.0
     2.9034        0.0  1.110E-02        0.0
     2.9122        0.0  5.597E-03        0.0
     2.9195        0.0  8.098E-03        0.0
     2.9297        0.0  4.100E-03        0.0
     2.9356        0.0  1.060E-02        0.0
     2.9458        0.0  2.260E-02        0.0
     2.9517        0.0  1.710E-02        0.0
     2.9605        0.0  7.604E-03        0.0
     2.9678        0.0  3.605E-03        0.0
     2.9766        0.0  4.107E-03        0.0
     2.9868        0.0  2.108E-03        0.0
     2.9941        0.0  5.109E-03        0.0
     2.9985        0.0  8.610E-03        0.0
     3.0073        0.0  1.161E-02        0.0
     3.0161        0.0  1.861E-02        0.0
     3.0263        0.0  1.411E-02        0.0
     3.0351        0.0  9.116E-03        0.0
     3.0454        0.0  6.117E-03        0.0
     3.0497        0.0  8.118E-03        0.0
     3.0585        0.0  7.119E-03        0.0
     3.0614        0.0  1.112E-02        0.0
     3.0658        0.0  9.120E-03        0.0
     3.0702        0.0  1.212E-02        0.0
      3.079        0.0  9.622E-03        0.0
     3.0849        0.0  7.123E-03        0.0
     3.0951        0.0  4.625E-03        0.0
     3.1039        0.0  2.126E-03        0.0
     3.1141        0.0  3.128E-03        0.0
     3.1244        0.0  2.629E-03        0.0
     3.1375        0.0  1.463E-02        0.0
     3.1463        0.0  3.263E-02        0.0
     3.1536        0.0  3.663E-02        0.0
     3.1595        0.0  2.264E-02        0.0
     3.1654        0.0  1.114E-02        0.0
     3.1712        0.0  1.414E-02        0.0
      3.177        0.0  2.214E-02        0.0
     3.1858        0.0  9.639E-03        0.0
     3.1917        0.0  7.140E-03        0.0
     3.2019        0.0  7.141E-03        0.0
     3.2093        0.0  3.142E-03        0.0
     3.2151        0.0  6.643E-03        0.0
     3.2254        0.0  6.145E-03        0.0
     3.2385        0.0  4.147E-03        0.0
     3.2444        0.0  2.865E-02        0.0
     3.2531        0.0  4.715E-02        0.0
     3.2619        0.0  3.165E-02        0.0
     3.2634        0.0  1.815E-02        0.0
     3.2795        0.0  6.153E-03        0.0
     3.2854        0.0  1.015E-02        0.0
     3.2926        0.0  3.266E-02        0.0
     3.3014        0.0  1.316E-02        0.0
     3.3044        0.0  6.157E-03        0.0
     3.3146        0.0  2.158E-03        0.0
     3.3219        0.0  3.660E-03        0.0
     3.3336        0.0  1.266E-02        0.0
     3.3439        0.0  1.666E-02        0.0
     3.3483        0.0  2.316E-02        0.0
     3.3555        0.0  5.217E-02        0.0
     3.3628        0.0  6.417E-02        0.0
     3.3731        0.0  4.417E-02        0.0
     3.3922        0.0  2.317E-02        0.0
     3.3995        0.0  1.467E-02        0.0
     3.4097        0.0  1.867E-02        0.0
     3.4156        0.0  1.417E-02        0.0
     3.4244        0.0  1.368E-02        0.0
     3.4317        0.0  1.318E-02        0.0
     3.4405        0.0  9.678E-03        0.0
     3.4463        0.0  1.118E-02        0.0
     3.4566        0.0  8.180E-03        0.0
      3.461        0.0  1.118E-02        0.0
     3.4697        0.0  1.218E-02        0.0
     3.4756        0.0  4.183E-03        0.0
     3.4873        0.0  2.685E-03        0.0
     3.4961        0.0  5.186E-03        0.0
     3.5034        0.0  8.688E-03        0.0
     3.5107        0.0  1.569E-02        0.0
     3.5195        0.0  1.769E-02        0.0
     3.5268        0.0  3.669E-02        0.0
      3.537        0.0  1.819E-02        0.0
     3.5444        0.0  6.194E-03        0.0
     3.5532        0.0  5.195E-03        0.0
     3.5649        0.0  6.197E-03        0.0
     3.5707        0.0  8.198E-03        0.0
      3.581        0.0  1.020E-02        0.0
     3.5912        0.0  7.701E-03        0.0
        3.6        0.0  6.702E-03        0.0
     3.6117        0.0  6.204E-03        0.0
     3.6175        0.0  1.421E-02        0.0
     3.6278        0.0  1.521E-02        0.0
     3.6439        0.0  1.421E-02        0.0
     3.6556        0.0  1.021E-02        0.0
     3.6644        0.0  5.712E-03        0.0
     3.6746        0.0  7.714E-03        0.0
     3.6805        0.0  1.872E-02        0.0
     3.6936        0.0  1.722E-02        0.0
     3.7009        0.0  2.822E-02        0.0
     3.7068        0.0  3.572E-02        0.0
      3.717        0.0  4.472E-02        0.0
     3.7273        0.0  4.622E-02        0.0
     3.7375        0.0  4.172E-02        0.0                                           
EndData:
