Comment: Data were digitized. Energy digitizing error is 1.952 keV
         data digitizing error is 0.001.
         Data are given as Rutherford ratio.
         Angle was converted from the center-of mass to the laboratory system.       

Version: R33
Source: D.Frekers et al. Nuclear Physics A v.394 (1983) 189
Name: Elena Kamskaya
Address1: All-Russia Scientific Research Institute of Experimental Physics
Address2: 607190, Mira, 37, Sarov, Nizhni Novgorod reg., Russia
Address3: tel: (831-30) 2-77-79   fax:( 831-30) 4-55-69
Address4: e-mail: kamskaya@expd.vniief.ru
Serial Number: 
SubFile: 
X4Number: F1042009 
Reaction: 48Ca(a,a0)48Ca 
Distribution: Energy
Composition: 
Masses:    4.000,   48.000,    4.000,   48.000
Zeds: 2, 20, 2, 20
Qvalue:       0.00,      0.00,      0.00,      0.00,      0.00
Theta:   175.96
Sigfactors: 1.00, 0.00 
Enfactors: 1000.00, 0.00, 0.00, 0.00
Units: rr
Data:
     5.5195         0.    0.95817         0.
     5.5228         0.    0.91918         0.
     5.5289         0.     0.9956         0.
     5.5323         0.    0.91139         0.
      5.535         0.      1.111         0.
     5.5447         0.     1.0065         0.
     5.5508         0.     1.1172         0.
     5.5605         0.     1.0065         0.
     5.5635         0.     1.0783         0.
     5.5668         0.     1.0065         0.
     5.5762         0.     1.0455         0.
     5.5796         0.    0.93949         0.
     5.5889         0.     1.0097         0.
     5.5923         0.    0.93949         0.
     5.5984         0.     1.0081         0.
     5.6017         0.    0.95042         0.
      5.608         0.    0.99252         0.
     5.6144         0.    0.95042         0.
     5.6238         0.    0.99097         0.
     5.6302         0.    0.94419         0.
     5.6332         0.     0.9941         0.
     5.6458         0.     1.0253         0.
     5.6523         0.    0.97227         0.
     5.6585         0.     1.0269         0.
     5.6649         0.    0.97852         0.
     5.6681         0.    0.95357         0.
     5.6775         0.    0.98632         0.
     5.6808         0.    0.91147         0.
     5.6901         0.    0.99101         0.
     5.6934         0.    0.92863         0.
     5.6997         0.    0.97542         0.
     5.7061         0.     0.9302         0.
     5.7186         0.    0.97231         0.
     5.7252         0.    0.87875         0.
     5.7345         0.    0.95049         0.
     5.7409         0.    0.91618         0.
     5.7471         0.    0.94426         0.
     5.7599         0.    0.91931         0.
     5.7629         0.    0.97545         0.
     5.7693         0.    0.92867         0.
     5.7723         0.    0.99261         0.
     5.7787         0.    0.95051         0.
     5.7849         0.     1.0191         0.
     5.7882         0.    0.95207         0.
     5.7976         0.     1.0191         0.
     5.8008         0.      0.963         0.
     5.8041         0.    0.93961         0.
     5.8135         0.    0.96924         0.
     5.8167         0.    0.93805         0.
      5.823         0.    0.97237         0.
     5.8263         0.    0.90063         0.
     5.8451         0.    0.98017         0.
     5.8514         0.    0.96146         0.
      5.861         0.    0.90065         0.
     5.8767         0.    0.96304         0.
     5.8801         0.    0.87103         0.
     5.8988         0.    0.97085         0.
     5.9021         0.    0.90067         0.
     5.9242         0.    0.94123         0.
     5.9306         0.    0.87886         0.
     5.9399         0.    0.96307         0.
     5.9434         0.    0.83208         0.
     5.9494         0.    0.96308         0.
     5.9528         0.    0.86171         0.
     5.9622         0.    0.91162         0.
     5.9654         0.    0.88355         0.
     5.9937         0.    0.93971         0.
     5.9971         0.    0.85394         0.
     6.0096         0.    0.89761         0.
      6.013         0.    0.82432         0.
     6.0191         0.    0.88358         0.
      6.035         0.      0.868         0.
     6.0381         0.     0.9023         0.
     6.0537         0.    0.99432         0.
     6.0635         0.    0.85086         0.
     6.0823         0.    0.91948         0.
     6.0919         0.    0.86958         0.
     6.0949         0.    0.92105         0.
     6.1045         0.    0.87583         0.
     6.1107         0.    0.95848         0.
     6.1171         0.    0.89767         0.
     6.1265         0.    0.93822         0.
     6.1393         0.    0.87741         0.
      6.155         0.    0.93823         0.
     6.1614         0.     0.8821         0.
     6.1929         0.    0.93981         0.
     6.1994         0.    0.85717         0.
     6.2119         0.    0.91019         0.
     6.2184         0.    0.85562         0.
     6.2403         0.     0.9414         0.
     6.2437         0.    0.84627         0.
     6.2594         0.    0.87123         0.
     6.2659         0.    0.82445         0.
     6.2786         0.    0.76676         0.
     6.2848         0.    0.82134         0.
     6.2975         0.    0.80108         0.
     6.3037         0.    0.86814         0.
     6.3133         0.    0.80265         0.
     6.3256         0.    0.96328         0.
      6.329         0.    0.83852         0.
     6.3479         0.    0.88687         0.
     6.3512         0.    0.80579         0.
     6.3574         0.    0.89624         0.
     6.3607         0.    0.83698         0.
     6.3734         0.    0.77149         0.
     6.3828         0.    0.84011         0.
     6.4018         0.    0.80425         0.
     6.4079         0.    0.93369         0.
     6.4207         0.    0.86352         0.
       6.43         0.    0.91187         0.
     6.4333         0.    0.87133         0.
     6.4427         0.    0.90564         0.
     6.4618         0.    0.83703         0.
     6.4743         0.    0.90566         0.
     6.4776         0.    0.84328         0.
     6.4902         0.    0.87448         0.
     6.4966         0.    0.84953         0.
     6.5255         0.    0.65149         0.
     6.5505         0.    0.75599         0.
     6.5697         0.    0.65308         0.
     6.5758         0.    0.77783         0.
     6.5883         0.    0.83086         0.
     6.5916         0.    0.77784         0.
      6.601         0.    0.81372         0.
     6.6042         0.    0.77785         0.
     6.6137         0.    0.79345         0.
     6.6202         0.      0.703         0.
     6.6263         0.    0.79034         0.
     6.6391         0.    0.70925         0.
     6.6421         0.    0.79035         0.
     6.6581         0.    0.72954         0.
     6.6611         0.    0.80127         0.
     6.6707         0.    0.73734         0.
     6.6736         0.    0.86522         0.
     6.6831         0.    0.82312         0.
     6.6861         0.    0.90889         0.
     6.6926         0.    0.83248         0.
     6.6987         0.    0.91669         0.
     6.7053         0.     0.8013         0.
     6.7179         0.    0.84341         0.
     6.7212         0.     0.7592         0.
     6.7369         0.    0.81847         0.
     6.7465         0.    0.75609         0.
     6.7561         0.     0.6984         0.
     6.7753         0.    0.59704         0.
     6.7814         0.    0.71245         0.
     6.7911         0.    0.59705         0.
      6.794         0.    0.71245         0.
     6.8033         0.     0.8263         0.
     6.8095         0.    0.87153         0.
      6.822         0.    0.92767         0.
     6.8349         0.    0.82008         0.
     6.8413         0.    0.78109         0.
     6.8477         0.    0.75927         0.
     6.8572         0.    0.74056         0.
     6.8668         0.    0.65947         0.
     6.8701         0.    0.59865         0.
     6.8922         0.    0.62206         0.
      6.902         0.    0.50666         0.
      6.908         0.    0.62207         0.
     6.9145         0.    0.53942         0.
     6.9267         0.     0.7749         0.
      6.946         0.    0.58622         0.
     6.9554         0.    0.63613         0.
     6.9648         0.    0.67044         0.
     6.9805         0.    0.74374         0.
     6.9869         0.    0.67045         0.
     6.9963         0.    0.74375         0.
     6.9996         0.    0.66578         0.
     7.0153         0.    0.72193         0.
     7.0217         0.    0.66423         0.
     7.0406         0.    0.70167         0.
      7.047         0.    0.69388         0.
     7.0503         0.    0.61123         0.
     7.0565         0.    0.67984         0.
     7.0599         0.    0.56445         0.
     7.0691         0.    0.67829         0.
     7.0852         0.    0.54107         0.
     7.0881         0.     0.6705         0.
      7.104         0.    0.63776         0.
       7.11         0.    0.79995         0.
     7.1164         0.    0.73602         0.
     7.1258         0.    0.80308         0.
     7.1291         0.    0.70483         0.
     7.1448         0.    0.75786         0.
     7.1513         0.    0.68769         0.
     7.1638         0.    0.73292         0.
     7.1703         0.    0.67679         0.
     7.1734         0.    0.71733         0.
     7.1861         0.    0.67524         0.
     7.1922         0.    0.77037         0.
     7.1955         0.    0.71267         0.
      7.208         0.    0.76881         0.
     7.2145         0.    0.71424         0.
     7.2275         0.    0.54582         0.
     7.2524         0.    0.70022         0.
      7.259         0.    0.59574         0.
     7.2746         0.    0.66593         0.
     7.2844         0.    0.53962         0.
     7.3064         0.    0.58329         0.
     7.3227         0.    0.37121         0.
     7.3256         0.    0.48818         0.
     7.3415         0.    0.45855         0.
     7.3445         0.    0.52405         0.
     7.3569         0.    0.62698         0.
     7.3603         0.    0.53498         0.
     7.3759         0.     0.5958         0.
     7.3825         0.    0.46793         0.
      7.398         0.     0.6348         0.
     7.4076         0.    0.57711         0.
     7.4138         0.    0.62701         0.
     7.4202         0.    0.57867         0.
     7.4236         0.    0.49914         0.
     7.4329         0.    0.57556         0.
     7.4394         0.    0.49135         0.
     7.4522         0.    0.43678         0.
     7.4647         0.    0.48357         0.
     7.4739         0.    0.62705         0.
     7.4805         0.    0.50541         0.
     7.4896         0.    0.66916         0.
     7.4929         0.    0.58651         0.
     7.4994         0.    0.49607         0.
      7.515         0.    0.59744         0.
      7.518         0.    0.66761         0.
     7.5245         0.    0.60524         0.
     7.5369         0.     0.7378         0.
     7.5434         0.    0.65047         0.
       7.55         0.    0.48674         0.
     7.5561         0.    0.63333         0.
     7.5658         0.    0.53353         0.
      7.572         0.    0.55536         0.
     7.5843         0.    0.71755         0.
      7.594         0.     0.6427         0.
     7.6064         0.    0.74875         0.
     7.6098         0.    0.64115         0.
     7.6224         0.    0.62868         0.
     7.6385         0.    0.51017         0.
     7.6547         0.    0.34332         0.
     7.6674         0.    0.30434         0.
     7.6831         0.    0.35269         0.
     7.6894         0.    0.37921         0.
     7.7021         0.    0.34803         0.
     7.7082         0.    0.44939         0.
     7.7175         0.    0.51957         0.
     7.7237         0.    0.56948         0.
     7.7394         0.     0.6459         0.
     7.7519         0.    0.68022         0.
     7.7553         0.    0.58821         0.
     7.7711         0.    0.60849         0.
     7.7743         0.    0.58198         0.
     7.7869         0.    0.60694         0.
     7.7935         0.    0.48998         0.
     7.8031         0.    0.41669         0.
     7.8095         0.    0.37147         0.
     7.8157         0.    0.42138         0.
     7.8318         0.    0.31846         0.
     7.8601         0.    0.37462         0.
     7.8794         0.    0.20309         0.
     7.8981         0.    0.36372         0.
     7.9045         0.    0.31694         0.
     7.9198         0.    0.55243         0.
     7.9326         0.     0.4807         0.
     7.9387         0.    0.57427         0.
     7.9515         0.    0.47915         0.
     7.9577         0.    0.56493         0.
     7.9671         0.    0.60704         0.
     7.9798         0.    0.56806         0.
     7.9827         0.    0.66942         0.
     7.9892         0.    0.61173         0.
     7.9987         0.    0.57898         0.
      8.012         0.     0.3092         0.
     8.0152         0.    0.29205         0.
     8.0184         0.    0.24371         0.
     8.0279         0.    0.26399         0.
     8.0312         0.    0.20785         0.
     8.0405         0.    0.26399         0.
     8.0529         0.    0.39967         0.
      8.056         0.    0.41839         0.
      8.059         0.    0.47609         0.
     8.0684         0.    0.53535         0.
     8.0749         0.     0.4605         0.
     8.0778         0.    0.56031         0.
     8.0908         0.    0.41529         0.
     8.0938         0.    0.49014         0.
     8.1066         0.    0.41842         0.
     8.1094         0.    0.56812         0.
     8.1189         0.    0.54318         0.
      8.122         0.     0.5962         0.
     8.1253         0.    0.54474         0.
     8.1346         0.    0.60868         0.
     8.1446         0.    0.36853         0.
     8.1544         0.    0.22351         0.
     8.1668         0.     0.3358         0.
     8.1765         0.    0.22508         0.
     8.1794         0.    0.37479         0.
     8.1891         0.    0.28747         0.
     8.1984         0.      0.367         0.
     8.2081         0.    0.25941         0.
     8.2205         0.    0.36545         0.
     8.2238         0.    0.28125         0.
       8.23         0.    0.34987         0.
     8.2334         0.    0.25006         0.
     8.2428         0.     0.2719         0.
     8.2492         0.    0.22824         0.
     8.2525         0.    0.17678         0.
     8.2587         0.     0.2298         0.
     8.2651         0.     0.1877         0.
     8.2745         0.    0.25944         0.
     8.2809         0.    0.22358         0.
     8.2871         0.    0.24853         0.
     8.3031         0.    0.15653         0.
     8.3063         0.    0.13938         0.
     8.3095         0.    0.12067         0.
     8.3317         0.    0.12224         0.
     8.3443         0.    0.13004         0.
     8.3664         0.    0.13941         0.
      8.379         0.    0.15657         0.
     8.3821         0.    0.16749         0.
     8.3884         0.    0.18777         0.
      8.398         0.    0.14099         0.
     8.4073         0.    0.25327         0.
     8.4135         0.     0.2985         0.
     8.4262         0.      0.272         0.
EndData:
