Comment: Data were digitized. Energy digitizing error is 5.042 keV
         data digitizing error is 0.001.
         Data are given as Rutherford ratio.
         Angle was converted from the center-of mass to the laboratory system.       

Version: R33
Source: D.Frekers et al. Nuclear Physics A v.394 (1983) 189
Name: Elena Kamskaya
Address1: All-Russia Scientific Research Institute of Experimental Physics
Address2: 607190, Mira, 37, Sarov, Nizhni Novgorod reg., Russia
Address3: tel: (831-30) 2-77-79   fax:( 831-30) 4-55-69
Address4: e-mail: kamskaya@expd.vniief.ru
Serial Number: 
SubFile: 
X4Number: F1042009 
Reaction: 48Ca(a,a0)48Ca 
Distribution: Energy
Composition: 
Masses:    4.000,   48.000,    4.000,   48.000
Zeds: 2, 20, 2, 20
Qvalue:       0.00,      0.00,      0.00,      0.00,      0.00
Theta:   126.03
Sigfactors: 1.00, 0.00 
Enfactors: 1000.00, 0.00, 0.00, 0.00
Units: rr
Data:
     5.5142         0.     1.0651         0.
     5.5238         0.    0.95689         0.
     5.5303         0.    0.89504         0.
     5.5427         0.     1.0265         0.
     5.5554         0.    0.99092         0.
     5.5585         0.     1.0466         0.
     5.5681         0.     1.0095         0.
     5.5712         0.     1.0528         0.
     5.5776         0.     1.0095         0.
     5.5901         0.     1.0729         0.
     5.5998         0.    0.92444         0.
     5.6187         0.    0.99249         0.
      5.625         0.     1.0373         0.
     5.6281         0.     1.1007         0.
     5.6345         0.     1.0033         0.
     5.6471         0.     1.0343         0.
     5.6535         0.    0.98477         0.
     5.6693         0.     1.0404         0.
     5.6757         0.    0.99097         0.
     5.6819         0.     1.0544         0.
     5.6883         0.    0.99097         0.
     5.7009         0.      1.042         0.
     5.7042         0.    0.98789         0.
     5.7136         0.      1.025         0.
     5.7168         0.    0.97861         0.
     5.7263         0.     1.0111         0.
     5.7327         0.    0.96934         0.
     5.7453         0.      1.025         0.
     5.7548         0.    0.97089         0.
     5.7579         0.     1.0358         0.
     5.7643         0.    0.96935         0.
     5.7801         0.     1.0297         0.
     5.7833         0.    0.96163         0.
     5.7896         0.    0.99874         0.
      5.796         0.    0.96627         0.
     5.7991         0.     0.9972         0.
     5.8086         0.    0.97555         0.
     5.8149         0.      1.008         0.
     5.8213         0.    0.98948         0.
     5.8276         0.     1.0111         0.
     5.8308         0.    0.98948         0.
     5.8402         0.     1.0127         0.
     5.8435         0.    0.96319         0.
     5.8497         0.    0.99258         0.
     5.8561         0.    0.96629         0.
     5.8624         0.    0.99413         0.
     5.8688         0.    0.94619         0.
     5.8782         0.     1.0003         0.
     5.8846         0.     0.9462         0.
     5.8909         0.     1.0019         0.
     5.8973         0.    0.95548         0.
     5.9004         0.    0.99878         0.
     5.9068         0.    0.95703         0.
      5.913         0.    0.99879         0.
     5.9194         0.    0.96168         0.
     5.9256         0.     1.0344         0.
     5.9289         0.    0.96632         0.
     5.9383         0.     1.0174         0.
     5.9415         0.    0.96787         0.
      5.951         0.     1.0266         0.
     5.9542         0.    0.96942         0.
     5.9604         0.     1.0344         0.
     5.9637         0.    0.96942         0.
       5.97         0.     1.0158         0.
     5.9732         0.    0.96634         0.
     5.9826         0.    0.99417         0.
     5.9859         0.    0.95088         0.
     5.9953         0.     1.0143         0.
     6.0017         0.    0.95088         0.
     6.0079         0.     1.0127         0.
     6.0113         0.    0.89058         0.
     6.0143         0.      0.988         0.
     6.0208         0.    0.89522         0.
     6.0301         0.    0.98027         0.
     6.0366         0.    0.90605         0.
      6.046         0.    0.94781         0.
     6.0556         0.     0.9107         0.
     6.0618         0.    0.95709         0.
     6.0683         0.    0.87513         0.
     6.0776         0.    0.97101         0.
     6.0841         0.    0.87669         0.
     6.0934         0.    0.99421         0.
     6.0967         0.     0.8937         0.
     6.1029         0.     1.0159         0.
     6.1092         0.    0.99886         0.
     6.1186         0.     1.0422         0.
     6.1219         0.     1.0004         0.
     6.1313         0.     1.0159         0.
      6.141         0.    0.92464         0.
     6.1472         0.     1.0143         0.
     6.1536         0.    0.97259         0.
      6.163         0.     1.0205         0.
     6.1662         0.    0.97259         0.
     6.1757         0.      1.002         0.
     6.1789         0.    0.95868         0.
     6.1883         0.     0.9927         0.
     6.1947         0.    0.94631         0.
     6.2042         0.    0.98188         0.
     6.2106         0.    0.94632         0.
     6.2263         0.     1.0082         0.
     6.2296         0.    0.94787         0.
     6.2358         0.    0.99117         0.
      6.239         0.    0.94633         0.
     6.2485         0.    0.96798         0.
     6.2517         0.    0.94633         0.
     6.2612         0.    0.96644         0.
     6.2771         0.    0.87212         0.
     6.2865         0.    0.94789         0.
     6.2928         0.     0.9881         0.
     6.3024         0.    0.93398         0.
     6.3086         0.    0.98965         0.
     6.3119         0.    0.92471         0.
     6.3213         0.     0.9711         0.
     6.3245         0.    0.92471         0.
     6.3308         0.    0.96956         0.
     6.3404         0.    0.87987         0.
     6.3435         0.    0.95874         0.
     6.3531         0.    0.87988         0.
     6.3561         0.    0.95874         0.
     6.3594         0.    0.88761         0.
     6.3656         0.    0.98813         0.
     6.3689         0.    0.88916         0.
     6.3847         0.    0.91855         0.
     6.3879         0.     0.8536         0.
     6.4068         0.    0.91546         0.
     6.4101         0.    0.85052         0.
     6.4163         0.    0.91856         0.
     6.4259         0.    0.85671         0.
     6.4321         0.    0.93712         0.
     6.4353         0.    0.89692         0.
     6.4416         0.    0.96032         0.
     6.4511         0.    0.90466         0.
     6.4543         0.    0.93713         0.
     6.4638         0.    0.90002         0.
     6.4669         0.    0.93714         0.
     6.4701         0.    0.90621         0.
     6.4732         0.    0.97734         0.
     6.4828         0.    0.90931         0.
     6.4858         0.    0.99436         0.
     6.4922         0.    0.96343         0.
     6.4985         0.    0.98199         0.
     6.5049         0.    0.91705         0.
     6.5112         0.    0.97736         0.
     6.5145         0.    0.87839         0.
     6.5239         0.     0.9418         0.
     6.5271         0.    0.86912         0.
     6.5334         0.    0.94025         0.
     6.5398         0.    0.86294         0.
     6.5461         0.    0.90624         0.
     6.5525         0.    0.86139         0.
     6.5587         0.    0.91707         0.
     6.5651         0.    0.87841         0.
     6.5714         0.    0.89233         0.
     6.5747         0.    0.81656         0.
     6.5872         0.    0.90625         0.
     6.5968         0.    0.85832         0.
      6.603         0.    0.93873         0.
     6.6094         0.    0.90317         0.
     6.6251         0.    0.94957         0.
     6.6284         0.    0.88462         0.
      6.641         0.     0.9171         0.
     6.6474         0.    0.84442         0.
     6.6568         0.    0.92174         0.
     6.6632         0.     0.8568         0.
     6.6758         0.    0.91711         0.
     6.6822         0.    0.86299         0.
     6.6885         0.    0.92175         0.
     6.6917         0.     0.8599         0.
     6.6979         0.    0.92485         0.
     6.7043         0.    0.87691         0.
     6.7106         0.    0.92485         0.
      6.717         0.    0.87846         0.
     6.7233         0.    0.92331         0.
     6.7296         0.    0.89393         0.
     6.7359         0.    0.94651         0.
     6.7391         0.    0.89394         0.
     6.7454         0.    0.92951         0.
     6.7487         0.    0.82126         0.
     6.7549         0.    0.92796         0.
     6.7582         0.    0.82126         0.
     6.7644         0.    0.89704         0.
     6.7677         0.    0.81199         0.
      6.774         0.    0.88776         0.
     6.7804         0.    0.79962         0.
     6.7867         0.    0.81973         0.
     6.7963         0.    0.77798         0.
     6.8025         0.    0.84138         0.
     6.8088         0.    0.86613         0.
     6.8183         0.     0.8383         0.
     6.8214         0.    0.91252         0.
     6.8278         0.    0.86613         0.
      6.834         0.    0.95892         0.
     6.8436         0.     0.8847         0.
      6.853         0.    0.93882         0.
     6.8626         0.    0.88316         0.
     6.8689         0.    0.90945         0.
     6.8753         0.    0.83058         0.
     6.8816         0.    0.88007         0.
     6.8848         0.    0.81822         0.
     6.8911         0.    0.84451         0.
     6.9071         0.    0.74245         0.
     6.9102         0.    0.80431         0.
     6.9166         0.    0.74246         0.
     6.9196         0.    0.80586         0.
     6.9292         0.    0.75174         0.
     6.9322         0.    0.86463         0.
     6.9387         0.    0.75174         0.
     6.9513         0.    0.82133         0.
     6.9577         0.    0.74402         0.
      6.967         0.    0.85845         0.
     6.9703         0.    0.78268         0.
     6.9829         0.    0.85846         0.
     6.9861         0.    0.80124         0.
     6.9925         0.    0.76568         0.
     7.0082         0.    0.82599         0.
     7.0115         0.    0.76414         0.
      7.024         0.    0.83064         0.
     7.0306         0.    0.70848         0.
       7.04         0.    0.74095         0.
     7.0432         0.    0.70384         0.
     7.0527         0.    0.74096         0.
     7.0559         0.    0.66828         0.
     7.0621         0.    0.78426         0.
     7.0685         0.    0.70849         0.
     7.0779         0.    0.79355         0.
     7.0875         0.    0.73788         0.
     7.0908         0.    0.65592         0.
     7.1033         0.    0.73325         0.
     7.1129         0.    0.68222         0.
      7.116         0.     0.7348         0.
     7.1255         0.    0.71934         0.
     7.1285         0.    0.79975         0.
     7.1413         0.    0.72244         0.
     7.1506         0.    0.84151         0.
     7.1634         0.    0.72554         0.
     7.1824         0.    0.75338         0.
     7.1856         0.    0.69616         0.
     7.1951         0.    0.74874         0.
     7.2077         0.     0.7704         0.
     7.2141         0.    0.73638         0.
     7.2268         0.    0.66216         0.
     7.2425         0.     0.7766         0.
     7.2552         0.    0.70701         0.
     7.2648         0.    0.65753         0.
     7.2774         0.     0.6962         0.
     7.2806         0.    0.65599         0.
       7.29         0.    0.71012         0.
     7.2933         0.    0.65445         0.
     7.2995         0.    0.71012         0.
     7.3028         0.    0.65445         0.
     7.3122         0.    0.69312         0.
     7.3155         0.    0.62972         0.
     7.3217         0.    0.68384         0.
      7.325         0.    0.62508         0.
     7.3312         0.     0.6823         0.
     7.3345         0.    0.62818         0.
     7.3439         0.    0.65292         0.
     7.3472         0.    0.58952         0.
     7.3503         0.    0.64983         0.
     7.3567         0.    0.58952         0.
     7.3629         0.     0.6421         0.
     7.3694         0.     0.5818         0.
     7.3756         0.    0.61273         0.
      7.382         0.    0.59727         0.
     7.3883         0.    0.61892         0.
     7.3915         0.    0.60036         0.
     7.3945         0.     0.6684         0.
     7.4041         0.    0.64367         0.
     7.4072         0.    0.69624         0.
     7.4104         0.    0.65759         0.
     7.4166         0.    0.72718         0.
     7.4199         0.    0.65914         0.
     7.4261         0.    0.72873         0.
     7.4294         0.    0.65914         0.
     7.4325         0.    0.69161         0.
      7.442         0.     0.6576         0.
     7.4453         0.    0.58956         0.
     7.4547         0.     0.6174         0.
      7.458         0.    0.57874         0.
     7.4643         0.    0.60039         0.
     7.4675         0.    0.54936         0.
     7.4833         0.    0.57565         0.
     7.4866         0.     0.5138         0.
     7.4896         0.    0.57566         0.
      7.496         0.    0.52463         0.
     7.4991         0.    0.58185         0.
     7.5023         0.    0.55092         0.
     7.5054         0.    0.63752         0.
     7.5245         0.    0.54938         0.
     7.5275         0.    0.62206         0.
     7.5371         0.    0.55248         0.
     7.5434         0.     0.6097         0.
     7.5498         0.    0.55867         0.
      7.553         0.    0.52619         0.
     7.5719         0.    0.58496         0.
     7.5814         0.    0.54322         0.
      7.594         0.    0.59734         0.
     7.5973         0.    0.54786         0.
     7.6068         0.    0.52621         0.
     7.6193         0.    0.59426         0.
     7.6321         0.     0.5587         0.
     7.6351         0.    0.61282         0.
     7.6447         0.    0.58499         0.
     7.6509         0.    0.65149         0.
     7.6605         0.    0.55716         0.
     7.6701         0.     0.5015         0.
     7.6828         0.    0.46593         0.
     7.6954         0.    0.51233         0.
     7.7176         0.    0.49069         0.
     7.7238         0.    0.54481         0.
     7.7302         0.     0.5077         0.
     7.7365         0.    0.55719         0.
     7.7461         0.     0.5108         0.
     7.7586         0.    0.57576         0.
     7.7618         0.      0.534         0.
     7.7713         0.    0.57731         0.
     7.7745         0.    0.54329         0.
     7.7777         0.    0.49226         0.
     7.7871         0.    0.53865         0.
     7.7904         0.    0.49226         0.
     7.7966         0.    0.53556         0.
     7.7999         0.    0.47062         0.
     7.8093         0.    0.51237         0.
     7.8157         0.    0.46908         0.
     7.8316         0.    0.42733         0.
     7.8505         0.    0.47063         0.
     7.8538         0.    0.43507         0.
     7.8632         0.    0.45363         0.
     7.8728         0.    0.39642         0.
     7.8791         0.     0.4459         0.
      7.895         0.    0.37477         0.
     7.9044         0.    0.40725         0.
      7.917         0.     0.4753         0.
     7.9202         0.    0.42736         0.
     7.9423         0.    0.49696         0.
     7.9519         0.     0.4382         0.
     7.9582         0.    0.40727         0.
      7.974         0.    0.43821         0.
     7.9867         0.    0.41811         0.
     7.9898         0.     0.4444         0.
     7.9962         0.    0.41811         0.
     8.0025         0.    0.44904         0.
      8.012         0.    0.42276         0.
     8.0151         0.    0.46915         0.
     8.0215         0.    0.44132         0.
     8.0277         0.    0.48152         0.
     8.0342         0.    0.40266         0.
     8.0373         0.    0.46761         0.
     8.0437         0.    0.39493         0.
     8.0468         0.    0.46761         0.
     8.0531         0.    0.43823         0.
     8.0625         0.    0.52484         0.
     8.0721         0.    0.44443         0.
     8.0816         0.    0.42587         0.
     8.0881         0.    0.36402         0.
     8.0943         0.    0.39959         0.
     8.1008         0.    0.32846         0.
     8.1133         0.    0.41042         0.
     8.1197         0.    0.34702         0.
      8.126         0.    0.39187         0.
     8.1387         0.    0.34548         0.
     8.1451         0.    0.32693         0.
     8.1514         0.    0.34703         0.
     8.1578         0.    0.30838         0.
      8.164         0.    0.34549         0.
     8.1672         0.    0.35786         0.
     8.1703         0.    0.38106         0.
     8.1735         0.    0.36714         0.
     8.1798         0.    0.40426         0.
     8.1861         0.     0.3687         0.
     8.1956         0.    0.38726         0.
     8.2115         0.    0.32695         0.
     8.2146         0.    0.35634         0.
     8.2242         0.     0.3285         0.
     8.2273         0.    0.37799         0.
     8.2337         0.    0.33005         0.
     8.2399         0.    0.36562         0.
     8.2432         0.    0.33006         0.
     8.2559         0.    0.26357         0.
     8.2653         0.    0.32543         0.
     8.2684         0.     0.3579         0.
      8.278         0.    0.31925         0.
     8.2843         0.    0.34399         0.
     8.3066         0.    0.26049         0.
     8.3192         0.    0.29297         0.
     8.3319         0.    0.27442         0.
     8.3382         0.    0.29916         0.
     8.3445         0.    0.27597         0.
     8.3508         0.    0.29453         0.
      8.354         0.    0.27133         0.
     8.3635         0.    0.28216         0.
     8.3698         0.    0.26979         0.
     8.3793         0.    0.28681         0.
     8.3889         0.    0.25279         0.
     8.4015         0.    0.23579         0.
     8.4142         0.    0.24352         0.
EndData:
