Comment:    Automatically converted from EXFOR at 2020-10-22,06:47:28
            by the IAEA-NDS EXFOR Web-Retrieval System,
            program X4toR33 ver-2020-10-12 (V.Zerkin).
            X4Title: "Measurement and evaluation of the cross-section for
                      helium elastic scattering from nitrogen"
            X4Author: A.F.Gurbich, I.Bogdanovic Radovic, Z.Siketic, M.Jaksic
            EXFOR: D0587002    Created: 2009-10-14  Updated: 2011-03-09
            X4Reaction:7-N-14(A,EL)7-N-14,,DA; X4Points:276
            ENSDF:LevelEnergy=0.00
            Systematic uncertainty: ErrSys=3.6%
            AME2016: M1=4.002603254 M2=14.003074004 M3=4.002603254 M4=14.003074004

Version:      R33
X4Number:     D0587002 20110309
Source:       A.F.Gurbich+(2011), Nucl. Instrum. Methods in Physics Res., Sect.B, Vol.269, p.40
Reaction:     14N(a,a0)14N
Distribution: Energy
Sigfactors:   1.00, 0.036
Enfactors:    1.00, 0.00, 0.00, 0.00
Units:        mb
Composition:
Masses:       4.0, 14.0, 4.0, 14.0
Zeds:         2, 7, 2, 7
Qvalue:       0.0, 0.00, 0.00, 0.00, 0.00
Theta:        118
Data:
  2543.60,      2.50,     60.36,    1.7504
  2593.80,      2.60,     54.52,    1.6356
  2643.90,      2.60,     53.86,    1.7235
  2684.10,      2.70,     48.97,    1.4691
  2714.10,      2.70,     51.93,    1.2982
  2744.20,      2.70,     44.82,    1.2101
  2774.30,      2.80,     38.13,    1.3727
  2804.40,      2.80,     31.43,      1.10
  2834.50,      2.80,     25.00,      1.00
  2864.60,      2.90,     27.25,    1.1718
  2894.70,      2.90,     33.41,    1.1025
  2924.80,      2.90,     38.14,    1.1442
  2964.90,      3.00,     30.92,    0.8348
  2984.90,      3.00,     29.05,    0.7843
  3000.00,      3.00,     25.42,    0.6355
  3015.00,      3.00,     19.96,    0.5788
  3030.10,      3.00,     19.31,    0.5793
  3045.10,      3.00,     17.06,    0.7506
  3060.10,      3.10,     20.92,    0.8368
  3075.20,      3.10,     24.36,    1.0231
  3090.20,      3.10,     30.42,     1.156
  3105.30,      3.10,     36.74,    1.3961
  3120.30,      3.10,     41.52,    1.6193
  3135.30,      3.10,     45.48,    1.5008
  3150.40,      3.20,     42.20,    1.6458
  3165.40,      3.20,     43.50,     1.653
  3180.50,      3.20,     48.28,    1.6898
  3195.50,      3.20,     49.94,    1.7978
  3215.50,      3.20,     45.76,    1.6474
  3235.60,      3.20,     42.17,    1.6025
  3255.60,      3.30,     40.77,      1.59
  3275.70,      3.30,     39.52,    1.5018
  3305.80,      3.30,     39.51,    1.5409
  3335.80,      3.30,     40.37,    1.5341
  3365.90,      3.40,     40.64,     1.463
  3396.00,      3.40,     31.73,    1.4279
  3426.00,      3.40,     32.14,    1.4142
  3456.10,      3.50,     40.24,    1.3279
  3476.20,      3.50,     32.24,    1.3541
  3501.20,      3.50,     31.20,    1.1856
  3511.20,      3.50,     29.67,    1.0385
  3521.30,      3.50,     30.19,    1.1472
  3531.30,      3.50,     30.44,    1.1872
  3536.30,      3.50,     29.43,    1.1772
  3541.30,      3.50,     30.68,    1.1045
  3546.30,      3.50,     30.40,    1.1552
  3551.30,      3.60,     26.95,    1.1319
  3556.30,      3.60,     27.52,    1.0733
  3561.30,      3.60,     25.94,    1.0895
  3566.40,      3.60,     28.83,    1.1532
  3571.40,      3.60,     29.01,    1.2184
  3576.40,      3.60,     31.36,    1.3485
  3581.40,      3.60,     28.82,    1.2393
  3586.40,      3.60,     28.65,     1.232
  3593.40,      3.60,     29.33,    1.1439
  3597.40,      3.60,     25.42,    1.1947
  3603.40,      3.60,     25.75,    1.1587
  3609.40,      3.60,     31.22,    1.2488
  3614.50,      3.60,     32.79,    1.4428
  3620.50,      3.60,     31.42,    1.5082
  3626.50,      3.60,     37.56,    1.4648
  3631.50,      3.60,     38.39,    1.6508
  3636.50,      3.60,     44.63,    1.7406
  3641.50,      3.60,     43.27,    1.9039
  3646.50,      3.60,     43.52,    1.5232
  3651.50,      3.70,     40.73,    1.5477
  3658.50,      3.70,     42.82,    1.6272
  3664.60,      3.70,     38.64,    1.5456
  3670.60,      3.70,     39.80,    1.5124
  3675.60,      3.70,     35.44,    1.4885
  3678.60,      3.70,     36.55,    1.5351
  3681.60,      3.70,     39.21,    1.2939
  3691.60,      3.70,     42.83,    1.6275
  3696.60,      3.70,     41.19,    1.4828
  3701.60,      3.70,     39.29,    1.5323
  3706.60,      3.70,     42.54,    1.4889
  3716.70,      3.70,     40.59,    1.7454
  3726.70,      3.70,     40.59,    1.6236
  3736.70,      3.70,     35.69,    1.3919
  3746.70,      3.70,     38.52,    1.5023
  3756.70,      3.80,     34.98,    1.3992
  3766.80,      3.80,     31.52,    1.3238
  3776.80,      3.80,     32.47,    1.2663
  3786.80,      3.80,     30.13,    1.2655
  3811.80,      3.80,     27.38,    1.0952
  3836.90,      3.80,     25.20,    1.0584
  3861.90,      3.90,     24.11,    1.0126
  3877.00,      3.90,     25.74,    1.0296
  3897.00,      3.90,     24.99,    0.9746
  3907.00,      3.90,     26.44,    1.0576
  3917.00,      3.90,     22.42,    0.9416
  3927.00,      3.90,     23.43,    1.0075
EndData:
