Comment:    Automatically converted from EXFOR at 2020-10-22,06:47:08
            by the IAEA-NDS EXFOR Web-Retrieval System,
            program X4toR33 ver-2020-10-12 (V.Zerkin).
            X4Title: "Measurement and evaluation of the cross-section for
                      helium elastic scattering from nitrogen"
            X4Author: A.F.Gurbich, I.Bogdanovic Radovic, Z.Siketic, M.Jaksic
            EXFOR: D0587002    Created: 2009-10-14  Updated: 2011-03-09
            X4Reaction:7-N-14(A,EL)7-N-14,,DA; X4Points:276
            ENSDF:LevelEnergy=0.00
            Systematic uncertainty: ErrSys=3.6%
            AME2016: M1=4.002603254 M2=14.003074004 M3=4.002603254 M4=14.003074004

Version:      R33
X4Number:     D0587002 20110309
Source:       A.F.Gurbich+(2011), Nucl. Instrum. Methods in Physics Res., Sect.B, Vol.269, p.40
Reaction:     14N(a,a0)14N
Distribution: Energy
Sigfactors:   1.00, 0.036
Enfactors:    1.00, 0.00, 0.00, 0.00
Units:        mb
Composition:
Masses:       4.0, 14.0, 4.0, 14.0
Zeds:         2, 7, 2, 7
Qvalue:       0.0, 0.00, 0.00, 0.00, 0.00
Theta:        150
Data:
  2543.60,      2.50,     33.31,    1.1992
  2593.80,      2.60,     32.60,    1.1736
  2643.90,      2.60,     31.33,    1.2219
  2684.10,      2.70,     27.30,    0.9828
  2714.10,      2.70,     24.94,    0.8978
  2744.20,      2.70,     20.84,    0.8128
  2774.30,      2.80,     22.91,    0.9164
  2804.40,      2.80,     11.95,    0.6453
  2834.50,      2.80,     10.25,     0.656
  2864.60,      2.90,     21.12,    0.9082
  2894.70,      2.90,     22.09,    0.8836
  2924.80,      2.90,     22.29,    0.8693
  2964.90,      3.00,     14.82,    0.5928
  2984.90,      3.00,     11.95,    0.5019
  3000.00,      3.00,      8.74,    0.3933
  3015.00,      3.00,      6.90,    0.3381
  3030.10,      3.00,      7.92,    0.3881
  3045.10,      3.00,     11.18,    0.6037
  3060.10,      3.10,     21.96,    0.8345
  3075.20,      3.10,     29.92,    1.0472
  3090.20,      3.10,     39.75,     1.272
  3105.30,      3.10,     45.07,    1.4873
  3120.30,      3.10,     43.69,    1.6602
  3135.30,      3.10,     49.21,    1.5747
  3150.40,      3.20,     46.26,    1.7579
  3165.40,      3.20,     49.12,    1.7192
  3180.50,      3.20,     46.19,    1.8014
  3195.50,      3.20,     47.06,    1.6942
  3215.50,      3.20,     43.87,    1.6671
  3235.60,      3.20,     40.17,    1.5666
  3255.60,      3.30,     40.59,     1.583
  3275.70,      3.30,     39.16,    1.4881
  3305.80,      3.30,     38.72,    1.5101
  3335.80,      3.30,     38.45,    1.3842
  3365.90,      3.40,     37.11,    1.4844
  3396.00,      3.40,     33.42,      1.27
  3426.00,      3.40,     35.60,    1.2816
  3456.10,      3.50,     33.32,    1.2995
  3476.20,      3.50,     32.89,    1.2827
  3501.20,      3.50,     34.38,    1.2033
  3511.20,      3.50,     33.07,    0.9921
  3521.30,      3.50,     34.69,    1.1448
  3531.30,      3.50,     34.08,    1.0906
  3536.30,      3.50,     36.95,    1.2193
  3541.30,      3.50,     34.64,    1.0392
  3546.30,      3.50,     36.33,    1.0899
  3551.30,      3.60,     37.36,    1.0834
  3556.30,      3.60,     37.46,    1.1238
  3561.30,      3.60,     43.02,    1.2476
  3566.40,      3.60,     48.18,    1.3972
  3571.40,      3.60,     46.67,    1.4001
  3576.40,      3.60,     40.15,    1.4053
  3581.40,      3.60,     39.45,    1.3018
  3586.40,      3.60,     35.21,    1.2323
  3593.40,      3.60,     35.11,    1.2288
  3597.40,      3.60,     34.35,    1.2366
  3603.40,      3.60,     39.19,    1.2933
  3609.40,      3.60,     38.06,     1.256
  3614.50,      3.60,     44.21,    1.4589
  3620.50,      3.60,     40.17,    1.4461
  3626.50,      3.60,     44.62,    1.5617
  3631.50,      3.60,     45.10,    1.6236
  3636.50,      3.60,     54.19,    1.9508
  3641.50,      3.60,     53.93,    1.8876
  3646.50,      3.60,     59.95,    1.7386
  3651.50,      3.70,     61.87,    1.6705
  3658.50,      3.70,     68.60,     2.058
  3664.60,      3.70,     67.39,    2.0217
  3670.60,      3.70,     78.77,    2.1268
  3675.60,      3.70,     84.71,    2.4566
  3678.60,      3.70,     86.10,    2.3247
  3681.60,      3.70,     88.39,    2.1214
  3691.60,      3.70,     98.19,    2.3566
  3696.60,      3.70,     93.50,    2.3375
  3701.60,      3.70,     94.45,    2.5502
  3706.60,      3.70,     87.54,    2.1885
  3716.70,      3.70,     67.00,      2.01
  3726.70,      3.70,     55.26,    1.7683
  3736.70,      3.70,     43.26,    1.3843
  3746.70,      3.70,     34.44,    1.3432
  3756.70,      3.80,     29.06,    1.1624
  3766.80,      3.80,     26.91,    1.0495
  3776.80,      3.80,     26.82,    1.0728
  3786.80,      3.80,     24.12,    1.0372
  3811.80,      3.80,     23.33,    0.9332
  3836.90,      3.80,     23.14,    0.9719
  3861.90,      3.90,     22.32,    0.8705
  3877.00,      3.90,     27.52,    0.9907
  3897.00,      3.90,     30.42,    1.0039
  3907.00,      3.90,     30.00,      1.05
  3917.00,      3.90,     31.84,    1.0189
  3927.00,      3.90,     35.72,     1.143
EndData:
