Comment:    Automatically converted from EXFOR
            by the IAEA-NDS EXFOR Web-Retrieval System
            program version-2015/03/13, by V.Zerkin.
            "Cross-section measurements of alpha+14N elastic
             scattering for He beam TOF-ERDA"
            K.Yasuda,  H.Tsuchida,  T.Majima
            EXFOR: E2469003    Created: 2014-12-11  Updated: 2015-06-04
            X4Reaction:7-N-14(A,EL)7-N-14,,DA,,RTH; X4Points:115
            LevelEnergy: 0.00

Version:      R33
X4Number:     E2469003
Source:       K.Yasuda+(2015), Jour. Nucl. Instrum. Methods in Physics Res., Sect.B, Vol.343, p.1
Reaction:     14N(a,a0)14N
Distribution: Energy
Sigfactors:   1.00, 0.00
Enfactors:    1.00, 0.00, 0.00, 0.00
Units:        rr
Composition:
Masses:       4.0, 14.0, 4.0, 14.0
Zeds:         2, 7, 2, 7
Qvalue:       0.0, 0.00, 0.00, 0.00, 0.00
Theta:        165
Data:
 1971.10,     0.00,   1.0292,   0.0423
 2000.30,     0.00,   1.0989,   0.0473
 2030.40,     0.00,   0.9807,   0.0459
 2060.60,     0.00,   1.0013,   0.0447
 2090.80,     0.00,   1.0725,   0.0507
 2121.00,     0.00,   1.0472,   0.0443
 2150.10,     0.00,   1.0543,   0.0468
 2181.30,     0.00,   0.9862,   0.0436
 2211.50,     0.00,   1.0281,   0.0496
 2241.60,     0.00,   1.0054,   0.0493
 2270.80,     0.00,   1.0404,   0.0547
 2300.00,     0.00,   0.9655,   0.0486
 2330.10,     0.00,   1.0484,   0.0453
 2332.10,     0.00,   1.0805,   0.0598
 2361.30,     0.00,   0.9409,   0.0432
 2392.50,     0.00,   1.0379,   0.0493
 2421.60,     0.00,    0.973,    0.048
 2452.80,     0.00,   1.0064,   0.0563
 2482.90,     0.00,   0.9596,   0.0512
 2511.10,     0.00,   0.9264,   0.0517
 2561.30,     0.00,   0.9345,    0.064
 2590.00,     0.00,   0.9086,   0.0637
 2620.20,     0.00,   0.8733,   0.0622
 2650.30,     0.00,   0.8734,    0.064
 2680.50,     0.00,   0.8123,   0.0656
 2712.10,     0.00,    0.735,   0.0638
 2742.30,     0.00,   0.5817,    0.044
 2770.90,     0.00,   0.8355,   0.0555
 2801.10,     0.00,   0.3612,   0.0243
 2831.20,     0.00,   0.3206,   0.0265
 2859.90,     0.00,   0.7185,   0.0466
 2893.00,     0.00,   0.8568,   0.0529
 2923.20,     0.00,   0.7983,   0.0489
 2951.80,     0.00,   0.6174,   0.0425
 2983.50,     0.00,   0.4014,   0.0309
 3010.60,     0.00,   0.2885,   0.0252
 3040.70,     0.00,   0.5284,     0.04
 3072.40,     0.00,   1.4773,   0.0825
 3104.00,     0.00,   2.1469,   0.1085
 3132.70,     0.00,   2.1038,   0.1039
 3162.80,     0.00,   2.2949,   0.1164
 3192.90,     0.00,   2.0755,   0.1043
 3221.60,     0.00,   2.1053,   0.1073
 3251.70,     0.00,   2.0778,   0.1062
 3281.80,     0.00,   2.1106,   0.1266
 3312.00,     0.00,   2.0669,   0.1248
 3342.10,     0.00,   1.9465,   0.0824
 3372.30,     0.00,   1.9769,   0.1003
 3402.40,     0.00,   2.0369,   0.1606
 3432.50,     0.00,   2.0812,    0.155
 3461.20,     0.00,   2.0452,   0.1617
 3491.30,     0.00,   1.8275,   0.1535
 3521.40,     0.00,   1.9928,   0.1498
 3732.30,     0.00,    2.369,   0.1752
 3762.50,     0.00,   1.5039,   0.1309
 3792.60,     0.00,   1.4073,    0.127
 3822.70,     0.00,   1.6107,   0.1401
 3852.80,     0.00,   1.6854,   0.1449
 3883.00,     0.00,    1.919,   0.1436
 3913.10,     0.00,   2.7134,   0.2177
 3941.70,     0.00,   4.0066,   0.3136
 3973.30,     0.00,   4.9263,   0.2994
 4003.50,     0.00,   6.1785,   0.3288
 4032.10,     0.00,   4.5573,   0.2375
 4063.70,     0.00,   3.1325,   0.2138
 4093.80,     0.00,   1.7717,   0.1433
 4124.00,     0.00,   1.8561,   0.1183
 4154.10,     0.00,    1.477,    0.108
 4181.20,     0.00,   1.1513,    0.091
 4214.30,     0.00,   0.6423,   0.0596
 4242.90,     0.00,   0.3463,   0.0354
 4271.60,     0.00,   0.1984,   0.0224
 4304.70,     0.00,   0.4423,   0.0433
 4334.80,     0.00,   0.6381,   0.0615
 4364.90,     0.00,   0.8392,   0.0714
 4395.10,     0.00,   1.1899,   0.0909
 4422.20,     0.00,   1.8869,   0.1199
 4453.80,     0.00,   5.7048,   0.2824
 4482.40,     0.00,   0.9867,   0.0763
 4512.50,     0.00,    0.353,   0.0456
 4542.60,     0.00,   0.7511,   0.0709
 4572.70,     0.00,   1.5201,   0.1145
 4602.80,     0.00,   2.0351,   0.1561
 4632.90,     0.00,   2.5315,   0.2042
 4663.00,     0.00,   1.9803,   0.1711
 4691.60,     0.00,   1.9829,    0.163
 4721.80,     0.00,   1.9972,   0.1646
 4751.90,     0.00,   1.9741,   0.1418
 4782.00,     0.00,   1.9776,   0.1389
 4812.10,     0.00,   2.1886,   0.1463
 4842.20,     0.00,   2.3623,   0.1551
 4872.30,     0.00,   3.1696,   0.1918
 4902.40,     0.00,   4.7296,   0.3258
 4932.50,     0.00,  10.2944,   0.5951
 4962.60,     0.00,  10.2823,   0.5353
 4992.80,     0.00,   8.9591,   0.4676
 5022.90,     0.00,   8.9665,   0.4878
 5051.50,     0.00,   8.6855,   0.5174
 5068.00,     0.00,   8.6645,   0.5465
 5081.60,     0.00,   10.805,   0.7052
 5098.10,     0.00,  10.0621,   0.6713
 5111.70,     0.00,  11.3008,    0.778
 5126.70,     0.00,  11.0164,   0.7265
 5141.80,     0.00,   9.9549,   0.6736
 5156.90,     0.00,   7.9914,   0.5589
 5171.90,     0.00,   6.6907,   0.4892
 5202.00,     0.00,   5.5977,   0.4219
 5232.10,     0.00,   5.3285,    0.402
 5262.20,     0.00,   5.1575,   0.3906
 5292.30,     0.00,   4.7284,    0.363
 5322.50,     0.00,   4.8013,   0.3567
 5352.60,     0.00,   4.1433,   0.2889
 5382.70,     0.00,   4.2347,   0.2883
 5409.80,     0.00,   3.3088,   0.4353
 5412.80,     0.00,   4.2387,   0.2619
EndData:

