Comment: Data were digitized. Energy digitizing error is 0.031 MeV,
         data digitizing error is 0.2%. 
         
Version: R33
Source: N.S.Zelenskaya+(1970), Yadernaya Fizika, Vol.11, p.722
Address1: All-Russia Scientific Research Institute of Experimental Physics
Address2: 607190, Mira, 37, Sarov, Nizhni Novgorod reg., Russia
Address3: tel: (831-30) 2-77-79   fax:( 831-30) 4-55-69
Address4: e-mail: taova@expd.vniief.ru
Serial Number: 
SubFile: 
X4Number: F0871002 20080516
Reaction:  14N(a,p1)17O
Distribution: Energy
Composition: 
Masses:    4.000,    14.000,    1.000,    17.000
Zeds: 2,   7,  1,   8
Qvalue:    -2062.4,      0.00,      0.00,      0.00,      0.00
Theta:      90.0
Sigfactors: 1.00,  0.00
Enfactors: 1000.00, 0.00, 0.00, 0.00
Units: mb
Data:                   
     9.8013        0.0    0.31438  6.174E-02
     10.419        0.0    0.22489  1.817E-02
     10.949        0.0    0.22019  2.282E-02
     11.476        0.0    0.14927  1.158E-02
      12.03        0.0    0.11068  9.660E-03
     12.547        0.0    0.11265  9.832E-03
     13.036        0.0  8.948E-02  7.230E-03
     13.374        0.0    0.11194  9.045E-03
     13.487        0.0  7.214E-02  6.767E-03
     13.622        0.0    0.13034  6.384E-03
     13.745        0.0    0.14129  4.286E-03
     13.907        0.0    0.15548  1.007E-02
     14.335        0.0    0.17466  1.243E-02
     14.439        0.0    0.18049  1.055E-02
     14.771        0.0    0.12128  7.086E-03
     15.286        0.0  8.912E-02  6.057E-03
     15.686        0.0  7.766E-02  6.275E-03
     15.994        0.0  6.337E-02  4.307E-03
     16.083        0.0  4.945E-02  5.176E-03
     16.411        0.0  9.069E-02  3.031E-03
     16.696        0.0  9.095E-02  3.321E-03
     16.863        0.0  7.832E-02  6.076E-03
     17.184        0.0  6.391E-02  1.742E-03
      17.26        0.0  5.406E-02  3.502E-03
     17.688        0.0  6.238E-02  4.639E-03
     17.933        0.0  5.324E-02  3.279E-03
     17.994        0.0  3.535E-02  4.370E-03
     18.279        0.0  3.686E-02  3.337E-03
     18.393        0.0  2.885E-02  4.054E-03
      18.64        0.0  3.420E-02  2.874E-03
     18.731        0.0  3.492E-02  2.151E-03
     19.016        0.0  3.652E-02  3.069E-03
      19.39        0.0  3.586E-02  2.898E-03
     19.465        0.0  2.636E-02  3.525E-03
     19.739        0.0  3.358E-02  2.713E-03
     20.086        0.0  2.643E-02  2.307E-03
     20.407        0.0  1.891E-02  1.150E-03
     20.783        0.0  2.169E-02  1.562E-03
     20.784        0.0  2.474E-02  2.159E-03
     21.095        0.0  2.898E-02  2.814E-03
     21.208        0.0  1.840E-02  1.907E-03
     21.451        0.0  1.340E-02  1.702E-03
     21.762        0.0  1.373E-02  1.559E-03
       22.1        0.0  1.845E-02  1.670E-03
     22.423        0.0  1.861E-02  1.807E-03
     22.784        0.0  1.556E-02  1.767E-03
     23.068        0.0  1.439E-02  1.635E-03
     23.674        0.0  1.224E-02  1.431E-03
     24.308        0.0  1.213E-02  1.297E-03
     24.716        0.0  1.261E-02  8.567E-04
     24.901        0.0  1.014E-02  1.118E-03                                           
EndData:
