Comment:    Automatically converted from EXFOR on 2019-04-01,15:01:20
            by the IAEA-NDS EXFOR Web-Retrieval System
            program ver-2019-02-20 (V.Zerkin).
            X4Title: "Cross-section measurements of the 14N(a,p)17O and
             14N(a,a)14N reactions between 3.5 and 6 MeV"
            X4Author: G.Terwagne, G.Genard, M.Yedji, G.G.Ross
            EXFOR: D0565003    Created: 2009-03-23  Updated: 2009-05-08
            X4Reaction:7-N-14(A,P)8-O-17,PAR,DA; X4Points:334
            ENSDF:LevelEnergy=0.00
            Systematic uncertainty: ErrSys=3.0%
            AME2016: M1=4.002603254 M2=14.003074004 M3=1.007825032 M4=16.999131756

Version:      R33
X4Number:     D0565003 20090508
Source:       G.Terwagne+(2008), Journal of Applied Physics, Vol.104, p.084909
Reaction:     14N(a,p0)17O
Distribution: Energy
Sigfactors:   1.00, 0.03
Enfactors:    1.00, 0.00, 0.00, 0.00
Units:        mb
Composition:
Masses:       4.0, 14.0, 1.0, 17.0
Zeds:         2, 7, 1, 8
Qvalue:       -1191.87, 0.00, 0.00, 0.00, 0.00
Theta:        135
Data:
 3509.00,     0.00,     0.79,   0.0659
 3531.20,     0.00,     1.11,   0.0616
 3559.10,     0.00,     1.26,   0.0926
 3582.30,     0.00,     1.68,   0.0978
 3609.30,     0.00,     2.31,   0.1552
 3615.20,     0.00,     2.35,   0.1764
 3632.70,     0.00,     3.94,   0.2428
 3659.30,     0.00,     5.59,    0.341
 3665.20,     0.00,     6.17,   0.3992
 3683.10,     0.00,    10.62,   0.6457
 3709.40,     0.00,    13.60,   0.8246
 3715.60,     0.00,    15.01,   0.9264
 3733.40,     0.00,    14.26,   0.8594
 3759.50,     0.00,     7.30,   0.4383
 3761.20,     0.00,     6.27,   0.3978
 3783.60,     0.00,     5.11,   0.3035
 3809.50,     0.00,     3.26,   0.1971
 3815.40,     0.00,     3.17,   0.2204
 3860.50,     0.00,     2.49,   0.1527
 3861.60,     0.00,     3.04,   0.2002
 3910.40,     0.00,     2.87,   0.1694
 3915.50,     0.00,     2.77,   0.2037
 3959.30,     0.00,     5.25,   0.3126
 3962.10,     0.00,     5.95,   0.3802
 4010.20,     0.00,     6.76,   0.4017
 4012.60,     0.00,     6.63,   0.4148
 4060.10,     0.00,     5.00,   0.3051
 4062.50,     0.00,     4.93,   0.3172
 4085.10,     0.00,     5.13,   0.3143
 4110.10,     0.00,     3.20,   0.1979
 4112.80,     0.00,     3.08,   0.2106
 4135.50,     0.00,     2.23,   0.1343
 4161.30,     0.00,     3.43,   0.2057
 4186.00,     0.00,     4.93,    0.295
 4211.20,     0.00,     7.84,   0.4638
 4236.40,     0.00,     9.13,    0.545
 4261.10,     0.00,     9.04,   0.5352
 4286.80,     0.00,     7.41,   0.4479
 4311.10,     0.00,     5.37,   0.3219
 4337.10,     0.00,     4.30,   0.2597
 4361.00,     0.00,     2.28,   0.1446
 4387.40,     0.00,     2.96,   0.1792
 4387.50,     0.00,     2.64,   0.1616
 4410.90,     0.00,     3.05,    0.189
 4412.70,     0.00,     2.98,   0.1789
 4435.90,     0.00,     6.81,   0.4121
 4437.40,     0.00,     5.93,   0.3583
 4463.20,     0.00,    17.14,   1.0286
 4487.50,     0.00,    19.99,   1.1983
 4510.90,     0.00,    16.36,   0.9844
 4537.60,     0.00,    11.72,   0.7074
 4561.10,     0.00,     8.50,   0.5209
 4587.60,     0.00,     6.44,   0.3953
 4611.40,     0.00,     5.32,   0.3227
 4637.60,     0.00,     4.91,   0.2953
 4661.70,     0.00,     4.16,   0.2506
 4689.70,     0.00,     3.93,   0.2429
 4712.00,     0.00,     3.71,   0.2239
 4739.60,     0.00,     3.44,   0.2055
 4762.30,     0.00,     3.30,   0.1965
 4789.50,     0.00,     3.74,   0.2234
 4812.70,     0.00,     4.31,   0.2596
 4839.50,     0.00,     5.49,   0.3313
 4863.00,     0.00,     7.16,   0.4404
 4889.60,     0.00,     9.97,   0.6107
 4913.00,     0.00,    10.24,   0.6178
 4939.60,     0.00,    10.15,   0.6192
 4963.30,     0.00,     8.60,   0.5195
 4988.80,     0.00,     7.21,   0.4397
 5012.60,     0.00,     6.34,   0.3856
 5038.90,     0.00,     6.59,   0.3931
 5062.90,     0.00,     7.46,   0.4583
 5088.90,     0.00,     9.81,   0.6019
 5113.10,     0.00,    10.83,   0.6649
 5139.00,     0.00,    11.80,   0.7174
 5163.40,     0.00,    11.04,   0.6729
 5189.10,     0.00,    10.15,   0.6192
 5213.60,     0.00,     8.53,   0.5205
 5239.20,     0.00,     8.20,   0.5031
 5263.90,     0.00,     8.10,   0.4934
 5289.30,     0.00,     8.46,   0.5215
 5314.10,     0.00,     8.87,   0.5378
 5339.30,     0.00,     9.32,   0.5646
 5364.40,     0.00,     9.64,   0.5821
 5389.40,     0.00,    10.00,   0.6102
 5414.60,     0.00,    10.09,   0.6089
 5439.50,     0.00,     9.92,   0.6003
 5464.80,     0.00,     9.61,   0.5826
 5489.60,     0.00,     9.50,   0.5842
 5515.10,     0.00,     9.63,   0.5823
 5539.70,     0.00,     9.88,   0.6009
 5565.30,     0.00,     9.96,   0.6108
 5589.80,     0.00,    10.73,   0.6552
 5615.50,     0.00,    10.70,   0.6445
 5639.80,     0.00,    11.73,   0.7073
 5665.10,     0.00,    11.88,   0.7274
 5678.90,     0.00,    13.04,   0.7994
 5689.90,     0.00,    13.76,   0.8334
 5704.00,     0.00,    14.56,   0.8884
 5715.30,     0.00,    14.44,   0.8791
 5740.90,     0.00,    15.30,   0.9221
 5765.50,     0.00,    15.29,   0.9334
 5790.90,     0.00,    16.11,   0.9658
 5815.60,     0.00,    17.42,    1.058
 5841.00,     0.00,    17.89,   1.0845
 5865.80,     0.00,    15.89,   0.9579
 5891.10,     0.00,    15.63,   0.9506
 5916.00,     0.00,    17.07,   1.0297
 5941.20,     0.00,    16.98,    1.031
 5966.20,     0.00,    16.37,   0.9955
 5991.30,     0.00,    14.38,   0.8688
EndData:
