Comment:    Automatically converted from EXFOR on 2019-04-01,14:55:37
            by the IAEA-NDS EXFOR Web-Retrieval System
            program ver-2019-02-20 (V.Zerkin).
            X4Title: "Cross-section measurements of the 14N(a,p)17O and
             14N(a,a)14N reactions between 3.5 and 6 MeV"
            X4Author: G.Terwagne, G.Genard, M.Yedji, G.G.Ross
            EXFOR: D0565003    Created: 2009-03-23  Updated: 2009-05-08
            X4Reaction:7-N-14(A,P)8-O-17,PAR,DA; X4Points:334
            ENSDF:LevelEnergy=0.00
            Systematic uncertainty: ErrSys=3.0%
            AME2016: M1=4.002603254 M2=14.003074004 M3=1.007825032 M4=16.999131756

Version:      R33
X4Number:     D0565003 20090508
Source:       G.Terwagne+(2008), Jour. Journal of Applied Physics, Vol.104, p.084909
Reaction:     14N(a,p0)17O
Distribution: Energy
Sigfactors:   1.00, 0.03
Enfactors:    1.00, 0.00, 0.00, 0.00
Units:        mb
Composition:
Masses:       4.0, 14.0, 1.0, 17.0
Zeds:         2, 7, 1, 8
Qvalue:       -1191.87, 0.00, 0.00, 0.00, 0.00
Theta:        165
Data:
 3509.00,     0.00,     0.93,   0.1167
 3531.20,     0.00,     1.11,   0.0727
 3559.10,     0.00,     1.96,   0.1912
 3582.30,     0.00,     1.67,     0.12
 3609.30,     0.00,     3.09,   0.2642
 3632.70,     0.00,     4.12,   0.2952
 3659.30,     0.00,     6.80,   0.4455
 3683.10,     0.00,    11.62,   0.7752
 3709.40,     0.00,    18.22,   1.1685
 3733.40,     0.00,    16.73,    1.112
 3759.50,     0.00,     9.63,   0.6156
 3783.60,     0.00,     6.05,   0.4008
 3809.50,     0.00,     4.02,   0.2637
 3860.50,     0.00,     3.48,   0.2272
 3910.40,     0.00,     3.37,   0.2177
 3959.30,     0.00,     3.88,   0.2656
 4010.20,     0.00,     4.54,   0.3006
 4060.10,     0.00,     3.89,   0.2655
 4085.10,     0.00,     3.97,   0.2644
 4110.10,     0.00,     1.99,   0.1484
 4135.50,     0.00,     1.36,   0.1022
 4161.30,     0.00,     1.97,   0.1487
 4162.10,     0.00,     2.66,   0.2157
 4186.00,     0.00,     3.70,   0.2461
 4187.50,     0.00,     4.59,   0.3326
 4211.20,     0.00,     5.73,   0.3722
 4211.60,     0.00,     6.70,   0.4578
 4236.40,     0.00,     7.02,   0.4645
 4236.60,     0.00,     7.99,   0.5282
 4261.10,     0.00,     7.55,   0.4792
 4261.50,     0.00,     7.00,   0.4757
 4286.50,     0.00,     6.74,   0.4573
 4286.80,     0.00,     6.69,    0.447
 4311.10,     0.00,     4.95,   0.3279
 4311.50,     0.00,     5.76,   0.4046
 4336.40,     0.00,     4.36,   0.3138
 4337.10,     0.00,     3.99,   0.2751
 4361.00,     0.00,     3.64,   0.2578
 4387.40,     0.00,     2.51,   0.1744
 4387.50,     0.00,     2.33,   0.1659
 4410.90,     0.00,     2.31,   0.1661
 4412.70,     0.00,     2.06,   0.1476
 4435.90,     0.00,     4.11,   0.2844
 4437.40,     0.00,     3.55,   0.2481
 4463.20,     0.00,    11.88,   0.7936
 4487.50,     0.00,    17.43,   1.1244
 4510.90,     0.00,    14.72,   0.9526
 4537.60,     0.00,    10.58,   0.7234
 4561.10,     0.00,     8.17,   0.5586
 4587.60,     0.00,     6.33,   0.4299
 4611.40,     0.00,     5.15,   0.3581
 4637.60,     0.00,     4.79,   0.3301
 4661.70,     0.00,     4.50,    0.312
 4689.70,     0.00,     4.37,   0.3028
 4712.00,     0.00,     3.36,   0.2288
 4739.60,     0.00,     2.65,   0.1835
 4762.30,     0.00,     2.74,   0.1932
 4789.50,     0.00,     2.98,   0.2119
 4812.70,     0.00,     3.78,   0.2669
 4839.50,     0.00,     4.94,    0.339
 4863.00,     0.00,     7.36,   0.5037
 4889.60,     0.00,    10.21,   0.6955
 4913.00,     0.00,    10.89,   0.7083
 4939.60,     0.00,     9.40,   0.6297
 4963.30,     0.00,     7.80,   0.5307
 4988.80,     0.00,     6.56,   0.4487
 5012.60,     0.00,     5.80,   0.3932
 5038.90,     0.00,     6.62,    0.437
 5062.90,     0.00,     7.84,   0.5302
 5088.90,     0.00,    11.19,   0.7481
 5113.10,     0.00,    12.92,   0.8673
 5139.00,     0.00,    13.04,   0.8657
 5163.40,     0.00,    12.69,   0.8375
 5189.10,     0.00,    11.14,   0.7488
 5213.60,     0.00,     9.26,   0.6097
 5239.20,     0.00,     9.12,   0.6225
 5263.90,     0.00,     7.64,     0.50
 5289.30,     0.00,     8.27,   0.5791
 5314.10,     0.00,     8.81,   0.5719
 5339.30,     0.00,    10.03,   0.6761
 5364.40,     0.00,    10.61,   0.7121
 5389.40,     0.00,    10.77,   0.7209
 5414.60,     0.00,     9.31,   0.6419
 5439.50,     0.00,    10.03,   0.6761
 5464.80,     0.00,    10.98,     0.74
 5489.60,     0.00,    11.47,   0.7663
 5515.10,     0.00,    11.71,    0.785
 5539.70,     0.00,    12.48,   0.8294
 5565.30,     0.00,    11.99,   0.8031
 5589.80,     0.00,    13.45,   0.8821
 5615.50,     0.00,    13.36,   0.8833
 5639.80,     0.00,    14.56,   0.9438
 5665.10,     0.00,    15.56,    1.051
 5678.90,     0.00,    17.73,   1.1752
 5689.90,     0.00,    18.19,   1.1689
 5704.00,     0.00,    20.52,   1.3349
 5715.30,     0.00,    20.81,   1.3639
 5740.90,     0.00,    21.72,   1.3733
 5765.50,     0.00,    19.47,   1.2833
 5790.90,     0.00,    17.91,   1.1507
 5815.60,     0.00,    18.03,   1.1931
 5841.00,     0.00,    17.92,   1.1946
 5865.80,     0.00,    14.71,   0.9748
 5891.10,     0.00,    15.16,   1.0235
 5916.00,     0.00,    16.17,   1.0866
 5941.20,     0.00,    16.39,   1.0946
 5966.20,     0.00,    16.41,   1.1053
 5991.30,     0.00,    13.89,    0.931
EndData:
