Comment: Data were digitized. Energy digitizing error is 5.558 keV
         data digitizing error is 0.012 (non-dimensional).
         Angle was converted from the center-of mass to
         the laboratory system.
         Data are given as Rutherford ratio. 

Version: R33
Source: D.Frekers et al. Nuclear Physics A v.394 (1983) 189
Name: Elena Kamskaya
Address1: All-Russia Scientific Research Institute of Experimental Physics
Address2: 607190, Mira, 37, Sarov, Nizhni Novgorod reg., Russia
Address3: tel: (831-30) 2-77-79   fax:( 831-30) 4-55-69
Address4: e-mail: kamskaya@expd.vniief.ru
Serial Number: 
SubFile: 
X4Number: F1042002 
Reaction: 40Ca(a,a0)40Ca 
Distribution: Energy
Composition: 
Masses:    4.000,   40.000,    4.000,   40.000
Zeds: 2, 20, 2, 20
Qvalue:        0.00,      0.00,      0.00,      0.00,      0.00
Theta:   87.47
Sigfactors: 1.00, 0.00 
Enfactors: 1000.00, 0.00, 0.00, 0.00
Units: rr
Data:
     4.4265         0.    0.98868         0.
      4.478         0.    0.99631         0.
      4.523         0.      1.004         0.
     4.5938         0.     1.0034         0.
     4.6581         0.     1.0029         0.
      4.703         0.    0.99444         0.
     4.7353         0.     1.0103         0.
     4.8446         0.     1.0094         0.
     4.9024         0.     1.0009         0.
      4.954         0.     1.0166         0.
     4.9796         0.     1.0083         0.
     5.0247         0.     1.0079         0.
     5.0696         0.    0.99946         0.
     5.1275         0.    0.99898         0.
     5.1919         0.     1.0065         0.
     5.2046         0.    0.98221         0.
     5.2433         0.     1.0141         0.
      5.269         0.    0.99781         0.
     5.3076         0.     1.0056         0.
     5.3462         0.     1.0133         0.
      5.359         0.    0.98899         0.
      5.417         0.     1.0208         0.
     5.4554         0.    0.98819         0.
     5.4749         0.     1.0203         0.
     5.5392         0.     1.0198         0.
     5.5711         0.    0.97917         0.
     5.6421         0.     1.0189         0.
     5.6613         0.     1.0107         0.
     5.6807         0.     1.0266         0.
     5.7449         0.       1.01         0.
     5.7643         0.     1.0259         0.
     5.8223         0.     1.0497         0.
     5.8422         0.     1.1543         0.
     5.8481         0.     1.0575         0.
     5.8604         0.    0.96063         0.
     5.8735         0.     1.0089         0.
     5.9122         0.     1.0247         0.
     5.9379         0.     1.0084         0.
     5.9701         0.     1.0242         0.
     5.9895         0.     1.0483         0.
     6.0218         0.     1.0641         0.
     6.0476         0.     1.0962         0.
     6.0665         0.     1.0073         0.
     6.1052         0.     1.0312         0.
      6.125         0.     1.1278         0.
     6.1373         0.     1.0309         0.
     6.1435         0.    0.97441         0.
     6.1631         0.     1.0388         0.
     6.1763         0.     1.1032         0.
     6.1887         0.     1.0224         0.
     6.1945         0.     0.9014         0.
     6.2337         0.     1.0059         0.
     6.2532         0.     1.0541         0.
     6.2665         0.     1.1428         0.
     6.2852         0.     1.0136         0.
     6.2909         0.    0.87641         0.
     6.3299         0.     0.9648         0.
     6.3431         0.     1.0292         0.
     6.3553         0.    0.90813         0.
     6.3692         0.     1.0935         0.
     6.3816         0.     1.0047         0.
     6.3937         0.    0.85942         0.
     6.4134         0.    0.93991         0.
     6.4201         0.    0.99631         0.
     6.4458         0.    0.97996         0.
     6.4843         0.    0.96351         0.
     6.5095         0.    0.87459         0.
     6.5165         0.    0.97938         0.
      6.517         0.     1.0681         0.
     6.5371         0.     1.2212         0.
     6.5558         0.     1.1162         0.
     6.5617         0.     1.0113         0.
     6.5747         0.     1.0434         0.
     6.5868         0.    0.89814         0.
     6.6004         0.     1.0351         0.
     6.6268         0.      1.172         0.
     6.6445         0.    0.85734         0.
     6.6652         0.     1.1394         0.
      6.671         0.     1.0104         0.
     6.6826         0.    0.76831         0.
     6.7164         0.     1.0745         0.
     6.7345         0.    0.85659         0.
     6.7597         0.    0.76767         0.
     6.7859         0.    0.84004         0.
      6.805         0.    0.80762         0.
     6.8438         0.    0.84762         0.
     6.8624         0.    0.72649         0.
     6.8961         0.     1.0085         0.
     6.9076         0.    0.75838         0.
     6.9272         0.     0.8066         0.
     6.9513         0.    0.51607         0.
      6.972         0.    0.76591         0.
     6.9853         0.    0.86257         0.
     7.0245         0.    0.97516         0.
     7.0559         0.    0.82166         0.
     7.0816         0.    0.82145         0.
      7.082         0.    0.90209         0.
     7.1017         0.    0.98258         0.
     7.1214         0.     1.0469         0.
     7.1267         0.     0.8372         0.
     7.1389         0.    0.72419         0.
     7.1576         0.    0.61113         0.
     7.1772         0.    0.66742         0.
     7.1984         0.     1.0302         0.
     7.2044         0.    0.93334         0.
     7.2363         0.    0.89275         0.
     7.2753         0.    0.97307         0.
     7.2943         0.    0.92452         0.
     7.3259         0.    0.81942         0.
     7.3328         0.    0.90001         0.
     7.3525         0.     0.9805         0.
     7.3584         0.    0.88367         0.
     7.3912         0.     1.0024         0.
     7.3972         0.    0.92367         0.
     7.4106         0.     1.0123         0.
     7.4356         0.    0.89109         0.
     7.4351         0.    0.77819         0.
      7.454         0.    0.72158         0.
     7.4614         0.    0.89088         0.
     7.4681         0.    0.95534         0.
     7.4884         0.     1.1326         0.
      7.506         0.    0.82599         0.
     7.5198         0.     1.0733         0.
     7.5317         0.    0.80964         0.
     7.5582         0.    0.95459         0.
     7.5704         0.    0.82545         0.
     7.5757         0.    0.62379         0.
     7.5891         0.    0.72045         0.
     7.5817         0.    0.54309         0.
     7.6088         0.    0.79287         0.
     7.6145         0.    0.66379         0.
     7.6343         0.     0.7604         0.
      7.646         0.    0.54255         0.
     7.6526         0.    0.57476         0.
     7.6601         0.    0.77632         0.
       7.68         0.    0.88906         0.
     7.7054         0.    0.81627         0.
     7.7174         0.      0.671         0.
     7.7374         0.    0.79181         0.
     7.7496         0.    0.66267         0.
     7.7623         0.    0.63837         0.
     7.7754         0.    0.68665         0.
      7.788         0.    0.63815         0.
     7.8148         0.    0.83955         0.
     7.8338         0.    0.78294         0.
     7.8396         0.    0.66192         0.
     7.8535         0.    0.85536         0.
     7.8856         0.    0.85509         0.
      7.899         0.     0.9437         0.
     7.9183         0.    0.95966         0.
     7.9374         0.    0.91918         0.
     7.9495         0.    0.76585         0.
     7.9698         0.     0.9673         0.
     7.9821         0.    0.86236         0.
     7.9944         0.    0.75741         0.
     8.0207         0.    0.86204         0.
     8.0405         0.    0.95059         0.
     8.0596         0.    0.92623         0.
     8.0664         0.    0.98263         0.
     8.0782         0.    0.78091         0.
     8.0979         0.    0.86946         0.
       8.13         0.    0.85306         0.
     8.1433         0.     0.9336         0.
     8.1554         0.    0.78833         0.
      8.168         0.     0.7479         0.
     8.1884         0.    0.94936         0.
     8.2003         0.    0.77989         0.
     8.2128         0.    0.70721         0.
     8.2319         0.    0.66672         0.
     8.2391         0.    0.80377         0.
     8.2661         0.     1.0536         0.
     8.2843         0.    0.85178         0.
     8.2836         0.    0.70662         0.
     8.3021         0.    0.56936         0.
     8.3295         0.     0.8756         0.
     8.3471         0.    0.56899         0.
     8.3545         0.    0.73829         0.
     8.3669         0.     0.6656         0.
     8.3867         0.    0.75415         0.
     8.3989         0.    0.63308         0.
     8.4108         0.    0.43942         0.
      8.418         0.    0.59259         0.
     8.4313         0.    0.67313         0.
     8.4331         0.     1.0118         0.
     8.4506         0.    0.68104         0.
     8.4715         0.     0.9712         0.
     8.4949         0.     0.5355         0.
     8.5091         0.    0.78539         0.
     8.5292         0.    0.94652         0.
     8.5415         0.    0.83351         0.
     8.5548         0.    0.92212         0.
     8.5617         0.     1.0188         0.
       8.58         0.    0.81706         0.
     8.5869         0.    0.91379         0.
     8.6004         0.     1.0266         0.
     8.6245         0.    0.72798         0.
     8.6448         0.    0.92137         0.
     8.6697         0.    0.75987         0.
     8.6889         0.    0.75164         0.
     8.6886         0.    0.69519         0.
     8.7075         0.    0.61438         0.
     8.7208         0.    0.70299         0.
     8.7329         0.    0.54159         0.
     8.7449         0.    0.39632         0.
     8.7518         0.    0.46885         0.
     8.7461         0.      0.606         0.
     8.7656         0.    0.64616         0.
     8.7923         0.    0.83143         0.
     8.8104         0.    0.62159         0.
     8.8162         0.    0.50057         0.
     8.8355         0.    0.49235         0.
     8.8739         0.     0.4517         0.
     8.8942         0.    0.65316         0.
     8.9203         0.    0.72552         0.
     8.9326         0.    0.61251         0.
     8.9508         0.    0.41074         0.
     8.9644         0.    0.53967         0.
     8.9716         0.    0.68477         0.
     9.0028         0.    0.51515         0.
     9.0216         0.    0.42628         0.
      9.048         0.     0.5551         0.
     9.0613         0.    0.62757         0.
     9.0803         0.    0.57096         0.
     9.1058         0.    0.53849         0.
EndData:
