Comment: Data were digitized. Energy digitizing error is 0.114 keV
         data digitizing error is 0.004 (non-dimensional).
         Angle was converted from the center-of mass to
         the laboratory system.
         Data are given as Rutherford ratio. 

Version: R33
Source: D.Frekers et al. Nuclear Physics A v.394 (1983) 189
Name: Elena Kamskaya
Address1: All-Russia Scientific Research Institute of Experimental Physics
Address2: 607190, Mira, 37, Sarov, Nizhni Novgorod reg., Russia
Address3: tel: (831-30) 2-77-79   fax:( 831-30) 4-55-69
Address4: e-mail: kamskaya@expd.vniief.ru
Serial Number: 
SubFile: 
X4Number: F1042002 
Reaction: 40Ca(a,a0)40Ca 
Distribution: Energy
Composition: 
Masses:    4.000,   40.000,    4.000,   40.000
Zeds: 2, 20, 2, 20
Qvalue:        0.00,      0.00,      0.00,      0.00,      0.00
Theta:   135.05
Sigfactors: 1.00, 0.00 
Enfactors: 1000.00, 0.00, 0.00, 0.00
Units: rr
Data:
     4.4165         0.     1.0323         0.
     4.4425         0.    0.98387         0.
     4.4749         0.     1.0242         0.
     4.5203         0.    0.98387         0.
     4.5721         0.     1.0062         0.
     4.5981         0.     1.0058         0.
     4.6305         0.     1.0161         0.
     4.6564         0.    0.99194         0.
     4.7147         0.     1.0074         0.
     4.7472         0.     1.0161         0.
      4.799         0.     1.0323         0.
      4.812         0.    0.98387         0.
     4.8509         0.     1.0029         0.
     4.8898         0.     1.0041         0.
     4.9222         0.     1.0081         0.
      5.013         0.     1.0242         0.
     5.0454         0.     1.0273         0.
     5.0843         0.     1.4014         0.
     5.1167         0.     1.0161         0.
     5.1556         0.     1.0323         0.
     5.1945         0.     1.0168         0.
     5.2269         0.     1.0128         0.
     5.2723         0.     1.0351         0.
     5.3047         0.    0.97581         0.
      5.363         0.    0.99194         0.
     5.4084         0.     1.0781         0.
     5.4538         0.    0.98387         0.
     5.4797         0.    0.97581         0.
     5.4992         0.     1.0081         0.
     5.5381         0.    0.98387         0.
      5.577         0.    0.97581         0.
     5.6483         0.    0.98387         0.
     5.6937         0.    0.96774         0.
     5.7196         0.    0.94355         0.
     5.7326         0.    0.97581         0.
     5.7585         0.    0.93548         0.
      5.778         0.    0.97581         0.
     5.8104         0.    0.91935         0.
     5.8233         0.    0.77419         0.
     5.8493         0.     1.0484         0.
     5.9011         0.    0.94355         0.
     5.9271         0.    0.97581         0.
     5.9724         0.    0.95161         0.
     6.0049         0.    0.90323         0.
     6.0373         0.    0.95161         0.
     6.0438         0.    0.74194         0.
     6.0632         0.    0.95968         0.
     6.0697         0.     1.0565         0.
     6.1021         0.    0.93548         0.
     6.1151         0.    0.68548         0.
      6.128         0.    0.98387         0.
      6.141         0.     1.0403         0.
      6.154         0.    0.94355         0.
     6.1669         0.    0.78226         0.
     6.1799         0.    0.99194         0.
     6.2123         0.    0.79032         0.
     6.2382         0.    0.94355         0.
     6.2642         0.     0.6129         0.
     6.2771         0.    0.72581         0.
     6.2901         0.    0.90323         0.
     6.3096         0.     1.0726         0.
      6.342         0.    0.91935         0.
     6.3679         0.    0.74194         0.
     6.3744         0.     1.0403         0.
     6.4068         0.    0.93548         0.
     6.4198         0.    0.75016         0.
     6.4263         0.    0.90323         0.
     6.4392         0.     1.0017         0.
     6.4716         0.    0.92742         0.
     6.4846         0.    0.66129         0.
     6.5105         0.     0.8871         0.
      6.543         0.    0.79839         0.
     6.5559         0.    0.57258         0.
     6.5754         0.     1.0565         0.
     6.5948         0.     0.6371         0.
     6.6078         0.    0.93548         0.
     6.6207         0.    0.73387         0.
     6.6337         0.    0.54839         0.
     6.6402         0.    0.79032         0.
     6.6532         0.    0.60484         0.
     6.6856         0.     1.0323         0.
     6.7115         0.    0.68548         0.
      6.731         0.     1.0364         0.
     6.7439         0.    0.81452         0.
     6.7699         0.     1.2016         0.
     6.7893         0.     1.0484         0.
     6.8152         0.     1.0051         0.
     6.8217         0.    0.92742         0.
     6.8412         0.    0.90323         0.
     6.8671         0.    0.66935         0.
     6.8995         0.     0.8871         0.
      6.919         0.     1.0363         0.
     6.9319         0.    0.95161         0.
     6.9514         0.    0.55645         0.
     6.9903         0.    0.83871         0.
     7.0097         0.    0.74194         0.
     7.0162         0.    0.84677         0.
     7.0357         0.    0.95161         0.
     7.0486         0.    0.85484         0.
     7.0681         0.    0.98387         0.
      7.094         0.    0.65323         0.
     7.1135         0.    0.55645         0.
     7.1199         0.    0.78226         0.
     7.1783         0.    0.28226         0.
     7.1977         0.    0.51613         0.
     7.2042         0.    0.29032         0.
     7.2431         0.      1.379         0.
     7.3079         0.    0.90323         0.
     7.3728         0.    0.57258         0.
     7.3922         0.    0.79839         0.
     7.3987         0.    0.59677         0.
     7.4376         0.    0.98387         0.
      7.457         0.    0.66935         0.
      7.457         0.    0.50806         0.
      7.483         0.    0.65323         0.
     7.4959         0.    0.84677         0.
     7.5154         0.    0.42742         0.
     7.5284         0.     0.6129         0.
     7.5348         0.    0.96774         0.
     7.5608         0.    0.52419         0.
     7.5737         0.     0.8871         0.
     7.5867         0.    0.48387         0.
     7.5997         0.    0.99194         0.
     7.6062         0.    0.62903         0.
     7.6191         0.    0.68548         0.
     7.6321         0.     1.0323         0.
     7.6451         0.     0.3871         0.
     7.6645         0.    0.99194         0.
      7.671         0.     1.1855         0.
     7.6904         0.     1.1242         0.
     7.7099         0.     0.6371         0.
     7.7423         0.    0.95161         0.
     7.7553         0.    0.39516         0.
     7.7747         0.    0.87097         0.
     7.8006         0.    0.51613         0.
     7.8201         0.     1.0161         0.
     7.8395         0.    0.52419         0.
     7.8525         0.    0.66935         0.
      7.872         0.    0.52419         0.
     7.8914         0.    0.84677         0.
     7.9109         0.     1.0887         0.
     7.9433         0.    0.83871         0.
     7.9562         0.    0.54839         0.
     7.9822         0.    0.74194         0.
     8.0016         0.    0.83871         0.
      8.034         0.    0.29032         0.
       8.06         0.    0.67742         0.
     8.0729         0.    0.79839         0.
     8.1118         0.    0.37097         0.
     8.1248         0.    0.52419         0.
     8.1378         0.    0.92742         0.
     8.1637         0.    0.49194         0.
     8.1831         0.    0.22581         0.
     8.1896         0.    0.48387         0.
     8.1961         0.    0.72581         0.
      8.222         0.    0.50806         0.
      8.235         0.    0.16935         0.
     8.2415         0.    0.66129         0.
     8.2545         0.    0.94355         0.
     8.2739         0.    0.33871         0.
     8.2804         0.    0.58871         0.
     8.3063         0.    0.54032         0.
     8.3193         0.    0.84677         0.
     8.3323         0.    0.69355         0.
     8.3452         0.    0.62097         0.
     8.3712         0.    0.69355         0.
     8.3582         0.    0.45161         0.
     8.3776         0.     0.6371         0.
     8.3906         0.    0.37097         0.
     8.4036         0.    0.62097         0.
     8.4165         0.    0.44355         0.
      8.436         0.    0.70161         0.
     8.4489         0.    0.47581         0.
     8.4619         0.    0.26613         0.
     8.4814         0.    0.49194         0.
     8.4943         0.    0.32258         0.
     8.5267         0.     1.4677         0.
     8.5721         0.    0.42742         0.
     8.5851         0.    0.57258         0.
     8.5981         0.    0.42742         0.
      8.611         0.    0.80645         0.
     8.6175         0.    0.53226         0.
      8.624         0.    0.24194         0.
     8.6434         0.    0.51613         0.
     8.6629         0.    0.30645         0.
     8.6759         0.    0.51613         0.
     8.6888         0.    0.79839         0.
     8.7083         0.    0.54839         0.
     8.7277         0.     1.0968         0.
     8.7407         0.    0.90323         0.
     8.7666         0.    0.60484         0.
     8.7861         0.    0.39516         0.
      8.799         0.    0.66935         0.
      8.812         0.    0.72581         0.
      8.825         0.     1.0081         0.
     8.8379         0.    0.75806         0.
     8.8574         0.    0.64516         0.
     8.8768         0.    0.40323         0.
     8.9028         0.    0.47581         0.
     8.9092         0.    0.57258         0.
     8.9352         0.    0.42742         0.
     8.9481         0.    0.48387         0.
     8.9676         0.    0.51613         0.
     8.9741         0.    0.73387         0.
         9.         0.    0.82258         0.
      9.013         0.    0.74194         0.
     9.0194         0.    0.85484         0.
     9.0324         0.     0.6371         0.
     9.0583         0.    0.50806         0.
     9.0843         0.    0.77419         0.
     9.1037         0.    0.87097         0.
     9.1102         0.     1.0093         0.
EndData:
