Comment: Data were digitized. Energy digitizing error is 0.793 keV
         data digitizing error is 0.001 (non-dimensional).
         Angle was converted from the center-of mass to
         the laboratory system.
         Data are given as Rutherford ratio.  

Version: R33
Source: D.Frekers et al. Nuclear Physics A v.394 (1983) 189
Name: Elena Kamskaya
Address1: All-Russia Scientific Research Institute of Experimental Physics
Address2: 607190, Mira, 37, Sarov, Nizhni Novgorod reg., Russia
Address3: tel: (831-30) 2-77-79   fax:( 831-30) 4-55-69
Address4: e-mail: kamskaya@expd.vniief.ru
Serial Number: 
SubFile: 
X4Number: F1042002 
Reaction: 40Ca(a,a0)40Ca 
Distribution: Energy
Composition: 
Masses:    4.000,   40.000,    4.000,   40.000
Zeds: 2, 20, 2, 20
Qvalue:        0.00,      0.00,      0.00,      0.00,      0.00
Theta:   145.01
Sigfactors: 1.00, 0.00 
Enfactors: 1000.00, 0.00, 0.00, 0.00
Units: rr
Data:
     4.4306         0.     1.0075         0.
     4.4695         0.     1.0063         0.
     4.5019         0.     1.0079         0.
     4.5408         0.    0.98092         0.
     4.5602         0.     1.0073         0.
     4.5991         0.    0.98263         0.
     4.6056         0.     1.0052         0.
     4.6899         0.    0.99067         0.
     4.7936         0.    0.99869         0.
      4.826         0.    0.99854         0.
      4.852         0.     1.0232         0.
     4.8973         0.     1.0067         0.
     4.9622         0.     1.0148         0.
     5.0205         0.    0.92011         0.
     5.0594         0.    0.99824         0.
     5.0789         0.     1.0884         0.
     5.0918         0.    0.99818         0.
     5.1242         0.    0.98993         0.
     5.1567         0.     1.0862         0.
     5.1631         0.     1.0145         0.
     5.1826         0.    0.98983         0.
     5.2021         0.     1.0216         0.
      5.228         0.    0.99795         0.
     5.2798         0.     1.0361         0.
     5.2993         0.      1.047         0.
     5.3057         0.    0.98143         0.
     5.3252         0.     1.0224         0.
     5.3641         0.    0.98953         0.
     5.3965         0.     1.4059         0.
      5.416         0.    0.98944         0.
      5.429         0.     1.0878         0.
     5.4354         0.     0.9976         0.
     5.4613         0.    0.98116         0.
     5.5262         0.    0.98105         0.
     5.5715         0.    0.96458         0.
      5.591         0.    0.98914         0.
      5.604         0.     1.0629         0.
     5.6234         0.    0.98089         0.
     5.6623         0.    0.97263         0.
     5.6882         0.    0.95619         0.
     5.7206         0.    0.95613         0.
      5.779         0.    0.95603         0.
     5.8049         0.    0.91501         0.
     5.8371         0.    0.76741         0.
     5.8438         0.    0.91494         0.
     5.8504         0.     1.0625         0.
     5.8632         0.    0.95589         0.
     5.8892         0.    0.93945         0.
     5.9086         0.    0.92303         0.
     5.9346         0.    0.96397         0.
      5.967         0.    0.97211         0.
     6.0123         0.    0.89006         0.
     6.0318         0.    0.99659         0.
     6.0447         0.    0.87362         0.
      6.064         0.    0.73424         0.
     6.0642         0.    0.93916         0.
     6.0772         0.    0.99651         0.
     6.1031         0.     0.9063         0.
     6.1288         0.    0.70954         0.
     6.1355         0.    0.93084         0.
     6.1421         0.     1.0702         0.
     6.1679         0.    0.92259         0.
     6.1742         0.    0.74225         0.
     6.1939         0.     1.0127         0.
     6.2003         0.    0.89794         0.
      6.226         0.    0.70937         0.
     6.2392         0.    0.93066         0.
     6.2585         0.    0.74211         0.
     6.2713         0.    0.58635         0.
     6.2911         0.    0.89779         0.
     6.2976         0.    0.99614         0.
     6.3237         0.     1.0699         0.
     6.3429         0.     0.9059         0.
     6.3492         0.    0.74195         0.
     6.3753         0.    0.90584         0.
     6.3885         0.     1.0616         0.
     6.4078         0.    0.94677         0.
      6.427         0.    0.74182         0.
     6.4403         0.     1.0533         0.
     6.4467         0.    0.97129         0.
     6.4598         0.     1.0287         0.
     6.4726         0.    0.89748         0.
     6.4852         0.    0.60238         0.
     6.4984         0.    0.77469         0.
      6.518         0.     0.9056         0.
     6.5373         0.     0.8154         0.
     6.5695         0.    0.61863         0.
     6.5633         0.    0.88093         0.
     6.5701         0.     1.1842         0.
     6.5827         0.    0.80713         0.
     6.5959         0.    0.98743         0.
     6.6086         0.    0.73331         0.
     6.6152         0.    0.92183         0.
     6.6277         0.    0.49558         0.
     6.6473         0.    0.61849         0.
     6.6475         0.    0.79063         0.
     6.6736         0.    0.92173         0.
     6.6868         0.     1.1922         0.
     6.7188         0.     0.7905         0.
     6.7321         0.     1.1028         0.
     6.7513         0.    0.82324         0.
     6.7712         0.     1.2904         0.
     6.7904         0.     1.0855         0.
     6.8163         0.    0.97067         0.
     6.8294         0.     1.1182         0.
     6.8357         0.    0.94604         0.
     6.8421         0.    0.88046         0.
     6.8551         0.    0.95421         0.
     6.8615         0.    0.88043         0.
     6.8679         0.    0.79025         0.
     6.8743         0.    0.70827         0.
     6.9069         0.    0.88855         0.
      6.933         0.    0.98686         0.
     6.9456         0.    0.62618         0.
     6.9586         0.    0.65895         0.
     6.9648         0.    0.46222         0.
     6.9844         0.    0.59333         0.
     6.9846         0.    0.79005         0.
     6.9977         0.      0.872         0.
     7.0235         0.    0.73261         0.
     7.0431         0.    0.90471         0.
     7.0497         0.     1.0604         0.
     7.0691         0.    0.95384         0.
      7.082         0.    0.87186         0.
     7.0883         0.     0.7407         0.
     7.0947         0.    0.62593         0.
     7.1077         0.    0.71607         0.
      7.114         0.    0.56852         0.
     7.1272         0.    0.72424         0.
     7.1334         0.    0.46193         0.
     7.1465         0.    0.56847         0.
     7.1528         0.    0.41272         0.
     7.1594         0.    0.50287         0.
     7.1786         0.    0.26513         0.
     7.1852         0.    0.42086         0.
      7.198         0.     0.2651         0.
     7.2048         0.    0.60115         0.
     7.2309         0.    0.69947         0.
     7.2444         0.     1.1994         0.
     7.2644         0.      1.765         0.
     7.2834         0.     1.3223         0.
     7.3154         0.    0.95343         0.
     7.3412         0.    0.78125         0.
     7.3734         0.    0.58448         0.
     7.3865         0.    0.74019         0.
     7.3998         0.    0.99427         0.
     7.4189         0.    0.69915         0.
     7.4326         0.     1.3713         0.
     7.4512         0.    0.63352         0.
     7.4706         0.    0.57611         0.
     7.4967         0.    0.70742         0.
     7.5157         0.    0.35013         0.
     7.5424         0.    0.99403         0.
     7.5613         0.    0.45301         0.
     7.5682         0.    0.90382         0.
     7.5873         0.    0.60051         0.
     7.5943         0.     1.0595         0.
     7.6198         0.    0.68242         0.
     7.6269         0.     1.1906         0.
     7.6391         0.    0.46107         0.
     7.6464         0.     1.2479         0.
     7.6584         0.    0.34629         0.
     7.6725         0.     1.4036         0.
     7.6792         0.     1.6413         0.
     7.6981         0.     1.0757         0.
     7.7173         0.    0.86258         0.
     7.7299         0.    0.58387         0.
     7.7566         0.     1.2969         0.
     7.7433         0.    0.98549         0.
     7.7687         0.    0.41167         0.
     7.7823         0.     1.0182         0.
     7.7946         0.    0.40343         0.
      7.808         0.    0.79685         0.
     7.8213         0.     1.1739         0.
     7.8275         0.     0.8378         0.
     7.8336         0.    0.52632         0.
     7.8599         0.    0.85414         0.
     7.8725         0.    0.55084         0.
      7.886         0.     1.0426         0.
     7.9052         0.    0.78029         0.
     7.9253         0.     1.3786         0.
     7.9443         0.    0.96875         0.
     7.9503         0.    0.55891         0.
     7.9637         0.    0.93593         0.
     7.9762         0.    0.53427         0.
     7.9959         0.    0.72276         0.
     7.9956         0.    0.47686         0.
     8.0153         0.    0.67355         0.
     8.0342         0.    0.18991         0.
     8.0476         0.    0.55874         0.
     8.0608         0.    0.80462         0.
      8.067         0.    0.53412         0.
     8.0867         0.     0.7472         0.
     8.0929         0.    0.50948         0.
     8.0996         0.     0.6898         0.
     8.1121         0.    0.24716         0.
     8.1255         0.    0.71435         0.
     8.1517         0.    0.95201         0.
     8.1643         0.    0.55854         0.
     8.1705         0.    0.27984         0.
     8.1837         0.    0.54212         0.
     8.1898         0.    0.21424         0.
     8.2098         0.    0.67322         0.
     8.2288         0.    0.30433         0.
     8.2356         0.    0.55842         0.
     8.2417         0.    0.16497         0.
     8.2552         0.    0.70593         0.
     8.2742         0.    0.32885         0.
      8.288         0.     1.0747         0.
     8.3069         0.    0.52551         0.
     8.3269         0.     1.0829         0.
     8.3332         0.    0.86973         0.
     8.3658         0.     1.0418         0.
     8.3655         0.    0.83689         0.
     8.3718         0.    0.59098         0.
     8.3915         0.    0.82045         0.
     8.4111         0.    0.95976         0.
     8.4174         0.    0.78762         0.
       8.43         0.    0.44334         0.
     8.4431         0.    0.61545         0.
     8.4494         0.    0.39412         0.
     8.4622         0.    0.25476         0.
     8.4819         0.    0.54161         0.
     8.4946         0.    0.28749         0.
     8.5153         0.     1.4104         0.
     8.5287         0.     1.8284         0.
     8.5409         0.     1.1235         0.
     8.5665         0.    0.82016         0.
     8.5724         0.    0.25457         0.
     8.5921         0.    0.54962         0.
     8.6114         0.    0.33647         0.
     8.6183         0.    0.80367         0.
     8.6242         0.    0.16432         0.
     8.6381         0.     1.0577         0.
     8.6439         0.    0.45937         0.
     8.6572         0.    0.72164         0.
     8.6697         0.    0.36096         0.
     8.6767         0.    0.79538         0.
     8.6963         0.    0.96748         0.
     8.7228         0.      1.451         0.
     8.7417         0.     1.0052         0.
     8.7479         0.    0.72149         0.
     8.7669         0.    0.28703         0.
     8.7867         0.    0.57388         0.
     8.8002         0.     1.0903         0.
     8.8394         0.     1.4017         0.
     8.8582         0.    0.75409         0.
     8.8772         0.     0.3852         0.
     8.8968         0.    0.45894         0.
     8.9228         0.    0.54086         0.
     8.9421         0.    0.39329         0.
     8.9487         0.    0.49983         0.
     8.9552         0.    0.58999         0.
     8.9617         0.     0.5408         0.
     8.9683         0.    0.68013         0.
     8.9813         0.    0.75388         0.
     8.9941         0.    0.59812         0.
      9.007         0.    0.52433         0.
     9.0265         0.    0.58167         0.
     9.0394         0.    0.49148         0.
     9.0587         0.    0.38489         0.
     9.0655         0.    0.65537         0.
     9.0786         0.    0.72093         0.
     9.0982         0.    0.92581         0.
      9.111         0.    0.72305         0.
     9.1175         0.    0.72086         0.
     9.1238         0.    0.63888         0.
EndData:
