Comment: Data were digitized. Energy digitizing error is 2.147 keV
         data digitizing error is 0.004 (non-dimensional).
         Angle was converted from the center-of mass to
         the laboratory system.
         Data are given as Rutherford ratio.  

Version: R33
Source: D.Frekers et al. Nuclear Physics A v.394 (1983) 189
Name: Elena Kamskaya
Address1: All-Russia Scientific Research Institute of Experimental Physics
Address2: 607190, Mira, 37, Sarov, Nizhni Novgorod reg., Russia
Address3: tel: (831-30) 2-77-79   fax:( 831-30) 4-55-69
Address4: e-mail: kamskaya@expd.vniief.ru
Serial Number: 
SubFile: 
X4Number: F1042003 
Reaction: 40Ca(a,a0)40Ca 
Distribution: Energy
Composition: 
Masses:    4.000,   40.000,    4.000,   40.000
Zeds: 2, 20, 2, 20
Qvalue:        0.00,      0.00,      0.00,      0.00,      0.00
Theta:   165.02
Sigfactors: 1.00, 0.00 
Enfactors: 1000.00, 0.00, 0.00, 0.00
Units: rr
Data:
     4.4084         0.     1.0834         0.
     4.4277         0.    0.99826         0.
     4.4469         0.    0.99826         0.
     4.4662         0.     1.0104         0.
     4.5563         0.    0.99826         0.
     4.6463         0.     1.0144         0.
     4.8071         0.    0.99826         0.
     4.9871         0.    0.99817         0.
     5.1029         0.    0.98611         0.
     5.3151         0.    0.97396         0.
     5.3794         0.     1.0347         0.
     5.4244         0.     1.0124         0.
     5.4695         0.    0.99893         0.
     5.5145         0.    0.99846         0.
     5.5531         0.    0.97396         0.
     5.5981         0.    0.98611         0.
     5.6752         0.    0.96181         0.
     5.7138         0.    0.97396         0.
     5.7267         0.    0.90104         0.
      5.746         0.     1.0226         0.
     5.7588         0.    0.92535         0.
     5.7974         0.    0.94965         0.
      5.836         0.    0.84028         0.
     5.8424         0.    0.97396         0.
     5.8617         0.     1.0955         0.
     5.8682         0.     1.0526         0.
     5.8746         0.     0.9375         0.
     5.9132         0.    0.91319         0.
      5.926         0.    0.98664         0.
     5.9582         0.    0.96129         0.
     5.9775         0.    0.91319         0.
     6.0225         0.    0.87674         0.
     6.0482         0.     0.9375         0.
     6.0611         0.    0.79167         0.
      6.074         0.     1.0955         0.
     6.1061         0.    0.94965         0.
     6.1383         0.    0.74306         0.
     6.1511         0.     1.1076         0.
      6.164         0.    0.94965         0.
     6.1704         0.    0.88349         0.
     6.1897         0.    0.74306         0.
      6.209         0.     0.9375         0.
     6.2347         0.    0.79167         0.
     6.2476         0.    0.94965         0.
     6.2797         0.    0.64583         0.
     6.3055         0.     1.0154         0.
     6.3183         0.    0.87674         0.
     6.3312         0.     1.2292         0.
     6.3569         0.    0.81597         0.
     6.3826         0.    0.97396         0.
     6.3955         0.     1.2292         0.
     6.4019         0.    0.98611         0.
     6.4148         0.     1.2049         0.
     6.4277         0.    0.84028         0.
     6.4534         0.     1.1806         0.
     6.4791         0.     0.9375         0.
     6.4984         0.    0.69424         0.
     6.5241         0.     1.3995         0.
     6.5434         0.    0.91319         0.
     6.5756         0.    0.65799         0.
     6.5884         0.     1.3264         0.
     6.6077         0.     1.0347         0.
      6.627         0.    0.79167         0.
     6.6463         0.    0.96181         0.
     6.6527         0.    0.81597         0.
     6.6592         0.     1.0226         0.
      6.672         0.    0.90314         0.
      6.672         0.     1.2656         0.
     6.6849         0.     1.1441         0.
     6.6977         0.     1.3628         0.
     6.7106         0.     1.1562         0.
     6.7235         0.    0.90225         0.
     6.7492         0.     1.3264         0.
     6.7621         0.     1.0955         0.
     6.7685         0.     1.4965         0.
     6.7814         0.     1.3385         0.
     6.7942         0.     1.2049         0.
     6.8135         0.     1.4844         0.
     6.8199         0.     1.0469         0.
     6.8392         0.     1.4115         0.
     6.8457         0.      1.059         0.
     6.8585         0.    0.96181         0.
      6.865         0.     1.1562         0.
     6.8778         0.     1.0347         0.
     6.8842         0.     1.3142         0.
     6.8971         0.     1.0347         0.
       6.91         0.    0.97396         0.
     6.9228         0.    0.81597         0.
     6.9357         0.    0.98611         0.
     6.9614         0.    0.59722         0.
     6.9807         0.     1.1562         0.
         7.         0.     1.0347         0.
     7.0064         0.      1.217         0.
     7.0257         0.     1.0712         0.
     7.0386         0.    0.88389         0.
     7.0514         0.     1.1927         0.
     7.0643         0.     1.0833         0.
     7.0707         0.     1.2413         0.
       7.09         0.     1.0955         0.
     7.0965         0.    0.96181         0.
     7.1029         0.     1.1076         0.
     7.1093         0.    0.77951         0.
     7.1222         0.    0.96181         0.
     7.1286         0.    0.74306         0.
      7.135         0.    0.99826         0.
     7.1543         0.    0.74306         0.
     7.1608         0.    0.52431         0.
     7.1672         0.    0.74306         0.
     7.1865         0.    0.63368         0.
     7.1929         0.     1.0226         0.
     7.2058         0.    0.64583         0.
     7.2508         0.     3.0156         0.
     7.3023         0.     1.4601         0.
     7.3215         0.     1.2535         0.
     7.3408         0.     1.1319         0.
     7.3601         0.     1.4479         0.
      7.373         0.    0.85243         0.
     7.3794         0.     1.0594         0.
     7.3987         0.    0.82689         0.
     7.4051         0.     1.2899         0.
      7.418         0.    0.82812         0.
     7.4437         0.     2.2632         0.
     7.4502         0.     1.0469         0.
     7.4695         0.     1.0114         0.
     7.4759         0.     1.7882         0.
     7.4952         0.     1.0955         0.
     7.5209         0.    0.56076         0.
     7.5466         0.     1.5694         0.
     7.5531         0.    0.90109         0.
     7.5659         0.    0.45139         0.
     7.6109         0.     1.7031         0.
     7.6238         0.      1.059         0.
     7.6367         0.     1.6788         0.
     7.6495         0.     1.0347         0.
     7.6559         0.    0.59722         0.
     7.6752         0.     2.6267         0.
     7.6945         0.     1.2899         0.
      7.701         0.     1.1076         0.
     7.7138         0.     1.2899         0.
     7.7203         0.     1.1198         0.
     7.7267         0.    0.81597         0.
     7.7524         0.     1.7882         0.
     7.7717         0.    0.99826         0.
     7.7974         0.     2.6146         0.
     7.8103         0.    0.80382         0.
     7.8167         0.      1.691         0.
     7.8424         0.    0.82812         0.
     7.8553         0.     1.1684         0.
     7.8682         0.    0.90147         0.
     7.8875         0.     2.3837         0.
     7.9068         0.    0.82812         0.
     7.9325         0.     1.9948         0.
     7.9453         0.     2.1771         0.
     7.9518         0.     1.4358         0.
     7.9582         0.     2.1042         0.
     8.0032         0.    0.92535         0.
     8.0289         0.    0.90163         0.
     8.0418         0.    0.51215         0.
     8.0547         0.     1.1198         0.
     8.0611         0.    0.62153         0.
      8.074         0.    0.88845         0.
     8.0804         0.    0.63368         0.
     8.0868         0.    0.81597         0.
     8.1061         0.    0.52431         0.
     8.1125         0.    0.86458         0.
     8.1318         0.    0.91319         0.
     8.1383         0.     1.1806         0.
     8.1511         0.    0.87674         0.
      8.164         0.     1.0597         0.
     8.1768         0.    0.87674         0.
     8.1833         0.      1.217         0.
     8.1897         0.    0.60938         0.
     8.2026         0.     1.3507         0.
     8.2154         0.    0.59722         0.
     8.2283         0.     1.1806         0.
     8.2347         0.    0.67014         0.
      8.254         0.     1.1806         0.
     8.2669         0.    0.39062         0.
      8.299         0.     2.9427         0.
     8.2862         0.    0.81597         0.
     8.3055         0.     1.6788         0.
     8.3119         0.    0.84028         0.
     8.3248         0.     2.0191         0.
     8.3505         0.     1.5087         0.
     8.3762         0.     3.7934         0.
     8.3955         0.     1.1076         0.
     8.4019         0.     2.7361         0.
     8.4148         0.     1.7274         0.
     8.4277         0.     3.1007         0.
     8.4469         0.    0.81597         0.
     8.4855         0.     1.4844         0.
     8.4984         0.    0.77951         0.
     8.5498         0.     3.5382         0.
     8.5691         0.     1.2535         0.
     8.5756         0.    0.64583         0.
     8.5884         0.      1.217         0.
     8.5949         0.    0.45139         0.
     8.6077         0.     1.1806         0.
     8.6141         0.    0.31771         0.
     8.6206         0.     1.3021         0.
     8.6334         0.    0.50734         0.
     8.6399         0.     1.4965         0.
     8.6527         0.    0.58507         0.
     8.6913         0.     2.1892         0.
     8.7106         0.    0.88229         0.
     8.7299         0.     2.5052         0.
     8.7428         0.    0.92535         0.
     8.7492         0.      1.533         0.
     8.7556         0.     1.1562         0.
     8.7621         0.     1.7639         0.
     8.7749         0.     1.3142         0.
     8.7814         0.     1.8247         0.
     8.7878         0.     1.5816         0.
     8.7942         0.     1.8854         0.
     8.8006         0.     1.7153         0.
     8.8071         0.     2.1649         0.
     8.8264         0.     1.8611         0.
     8.8328         0.     2.5174         0.
     8.8521         0.    0.97396         0.
     8.8907         0.    0.94965         0.
     8.8971         0.     1.6424         0.
       8.91         0.    0.96181         0.
     8.9421         0.     2.4931         0.
      8.955         0.     1.8611         0.
     8.9743         0.     2.6997         0.
     8.9936         0.    0.96181         0.
     9.0836         0.    0.96172         0.
       9.09         0.     2.2191         0.
     9.1222         0.    0.96137         0.
EndData:
