Comment: Data were digitized. Energy digitizing error is 5.355 keV
         data digitizing error is 0.002 (non-dimensional).
         Angle was converted from the center-of mass to
         the laboratory system.
         Data are given as Rutherford ratio.  

Version: R33
Source: D.Frekers et al. Nuclear Physics A v.394 (1983) 189
Name: Elena Kamskaya
Address1: All-Russia Scientific Research Institute of Experimental Physics
Address2: 607190, Mira, 37, Sarov, Nizhni Novgorod reg., Russia
Address3: tel: (831-30) 2-77-79   fax:( 831-30) 4-55-69
Address4: e-mail: kamskaya@expd.vniief.ru
Serial Number: 
SubFile: 
X4Number: F1042002 
Reaction: 40Ca(a,a0)40Ca 
Distribution: Energy
Composition: 
Masses:    4.000,   40.000,    4.000,   40.000
Zeds: 2, 20, 2, 20
Qvalue:        0.00,      0.00,      0.00,      0.00,      0.00
Theta:   104.95
Sigfactors: 1.00, 0.00 
Enfactors: 1000.00, 0.00, 0.00, 0.00
Units: rr
Data:
     4.4285         0.     1.0058         0.
     4.4544         0.     1.0137         0.
     4.4802         0.     1.0055         0.
     4.4998         0.     1.0538         0.
      4.519         0.    0.99722         0.
     4.5578         0.     1.0131         0.
       4.59         0.    0.99682         0.
     4.6289         0.     1.0208         0.
     4.6805         0.     1.0044         0.
     4.7064         0.     1.0042         0.
     4.7516         0.    0.99591         0.
     4.8034         0.     1.0198         0.
     4.8486         0.     1.0196         0.
     4.8809         0.     1.0032         0.
     4.9713         0.     1.0027         0.
     5.0166         0.     1.0025         0.
     5.0618         0.     1.0022         0.
     5.0874         0.    0.92948         0.
     5.0941         0.      1.002         0.
     5.1136         0.     1.0423         0.
     5.1327         0.    0.96149         0.
     5.1523         0.     1.0098         0.
     5.1718         0.     1.0339         0.
     5.2104         0.     1.0094         0.
     5.2622         0.     1.0253         0.
     5.3203         0.     1.0008         0.
     5.3785         0.     1.0246         0.
     5.4366         0.     1.0082         0.
     5.4754         0.     1.0079         0.
      5.495         0.     1.0804         0.
     5.5142         0.     1.0077         0.
     5.5529         0.     1.0075         0.
     5.5726         0.       1.08         0.
     5.5917         0.     1.0153         0.
     5.6175         0.    0.98294         0.
     5.6499         0.     1.0231         0.
     5.7015         0.     1.0067         0.
     5.7726         0.    0.99013         0.
     5.8181         0.     1.0786         0.
     5.8307         0.    0.98174         0.
     5.8433         0.    0.90101         0.
     5.8629         0.    0.96542         0.
     5.8825         0.     1.0137         0.
     5.9017         0.    0.94907         0.
     5.9212         0.    0.98929         0.
     5.9665         0.     0.9971         0.
     5.9989         0.     1.0453         0.
     6.0051         0.    0.97268         0.
     6.0246         0.     1.0048         0.
     6.0567         0.      0.924         0.
     6.0698         0.    0.98038         0.
     6.0957         0.     1.0125         0.
     6.1273         0.    0.80262         0.
     6.1407         0.    0.94772         0.
     6.1411         0.     1.0445         0.
     6.1732         0.     0.9798         0.
     6.1791         0.    0.84266         0.
     6.1925         0.    0.96356         0.
     6.2059         0.     1.0845         0.
     6.2184         0.    0.97954         0.
     6.2308         0.    0.84236         0.
     6.2381         0.      1.052         0.
     6.2571         0.    0.96319         0.
     6.2755         0.    0.68887         0.
      6.289         0.     0.8501         0.
     6.3085         0.    0.88225         0.
     6.3284         0.     1.0273         0.
     6.3409         0.    0.89013         0.
     6.3542         0.      1.003         0.
     6.3734         0.    0.94641         0.
     6.3792         0.      0.777         0.
     6.3926         0.    0.91404         0.
     6.4062         0.     1.0753         0.
     6.4188         0.     1.0026         0.
     6.4314         0.    0.91382         0.
     6.4574         0.    0.93787         0.
     6.4701         0.     0.8894         0.
     6.4771         0.     1.0426         0.
     6.4958         0.    0.85699         0.
     6.5156         0.    0.96173         0.
      6.529         0.     1.1068         0.
     6.5414         0.    0.93739         0.
     6.5546         0.     1.0341         0.
     6.5673         0.    0.96144         0.
      6.573         0.    0.75171         0.
       6.58         0.    0.90491         0.
     6.5935         0.     1.0661         0.
     6.6126         0.    0.99344         0.
     6.6188         0.    0.91276         0.
     6.6373         0.    0.67069         0.
     6.6446         0.    0.90454         0.
     6.6572         0.    0.80769         0.
     6.6566         0.    0.64639         0.
     6.6691         0.     0.5334         0.
      6.683         0.    0.79948         0.
     6.7033         0.     1.0413         0.
     6.7214         0.    0.70248         0.
     6.7476         0.    0.79105         0.
     6.7535         0.    0.64584         0.
     6.7736         0.    0.83123         0.
     6.7997         0.    0.90367         0.
     6.8059         0.    0.81491         0.
      6.819         0.    0.86323         0.
      6.825         0.    0.74222         0.
     6.8448         0.    0.86309         0.
     6.8575         0.    0.79849         0.
     6.8643         0.     0.9033         0.
      6.877         0.    0.83871         0.
     6.8902         0.    0.91122         0.
     6.9021         0.     0.6208         0.
     6.9156         0.    0.78203         0.
     6.9289         0.    0.87874         0.
     6.9411         0.    0.70124         0.
     6.9614         0.    0.95114         0.
     6.9753         0.     1.2011         0.
     6.9879         0.     1.1123         0.
     7.0262         0.    0.99917         0.
     7.0322         0.    0.85396         0.
     7.0645         0.    0.85378         0.
     7.0518         0.     0.9345         0.
     7.0585         0.    0.98286         0.
     7.0776         0.    0.91016         0.
     7.0843         0.    0.96658         0.
     7.0975         0.     1.0391         0.
     7.1166         0.    0.95833         0.
     7.1158         0.     0.7567         0.
     7.1291         0.    0.84535         0.
     7.1349         0.    0.66788         0.
     7.1416         0.    0.73236         0.
     7.1549         0.    0.85327         0.
     7.1617         0.    0.93388         0.
     7.1883         0.     1.1434         0.
     7.2006         0.    0.95786         0.
     7.2194         0.    0.81258         0.
     7.2252         0.    0.61898         0.
     7.2451         0.    0.75597         0.
     7.2712         0.    0.82841         0.
     7.2779         0.    0.90096         0.
      7.304         0.    0.96534         0.
     7.3165         0.    0.85235         0.
     7.3298         0.    0.94906         0.
     7.3367         0.     1.0861         0.
     7.3621         0.    0.94888         0.
     7.3682         0.    0.85206         0.
     7.4007         0.    0.90027         0.
     7.4066         0.    0.76312         0.
     7.4252         0.    0.52913         0.
      7.452         0.    0.81126         0.
     7.4663         0.     1.1902         0.
     7.4783         0.    0.93209         0.
     7.4844         0.    0.82721         0.
     7.4902         0.    0.64167         0.
      7.517         0.    0.90768         0.
     7.5293         0.     0.7221         0.
     7.5352         0.     0.5769         0.
      7.549         0.    0.81071         0.
     7.5613         0.    0.64127         0.
     7.5739         0.    0.56861         0.
     7.5872         0.    0.65725         0.
     7.6133         0.    0.72163         0.
     7.6324         0.    0.64893         0.
     7.6463         0.    0.93114         0.
     7.6588         0.    0.80202         0.
     7.6659         0.    0.97942         0.
     7.6783         0.    0.82611         0.
     7.6975         0.    0.76955         0.
     7.7159         0.    0.51942         0.
     7.7232         0.    0.72907         0.
     7.7368         0.    0.92256         0.
     7.7555         0.    0.74502         0.
     7.7551         0.    0.64017         0.
     7.7748         0.    0.72878         0.
     7.7808         0.    0.58357         0.
      7.794         0.    0.67222         0.
      7.814         0.    0.83341         0.
     7.8338         0.    0.93814         0.
     7.8463         0.    0.84129         0.
     7.8526         0.    0.77673         0.
     7.8727         0.    0.97019         0.
     7.8785         0.    0.80885         0.
     7.8845         0.     0.6717         0.
     7.9046         0.    0.86516         0.
     7.9179         0.    0.98606         0.
     7.9367         0.    0.80852         0.
     7.9422         0.    0.55846         0.
     7.9693         0.    0.88092         0.
     7.9751         0.    0.70345         0.
     7.9874         0.    0.54208         0.
     7.9948         0.    0.80819         0.
      8.002         0.     1.0098         0.
     8.0209         0.     0.8645         0.
     8.0346         0.     1.0741         0.
     8.0467         0.    0.85629         0.
     8.0657         0.     0.7352         0.
      8.078         0.    0.58189         0.
     8.0917         0.    0.78345         0.
     8.1049         0.    0.87209         0.
     8.1108         0.    0.70268         0.
     8.1181         0.    0.92847         0.
     8.1304         0.    0.77516         0.
     8.1565         0.    0.83147         0.
     8.1625         0.    0.71046         0.
     8.1887         0.    0.80709         0.
     8.1948         0.    0.71027         0.
     8.2005         0.    0.48442         0.
     8.2077         0.    0.69407         0.
     8.2136         0.    0.53273         0.
     8.2205         0.     0.6698         0.
     8.2339         0.    0.79877         0.
     8.2529         0.    0.68575         0.
      8.266         0.    0.73407         0.
     8.2787         0.    0.66947         0.
      8.259         0.    0.60506         0.
     8.2521         0.    0.46799         0.
     8.2784         0.    0.58882         0.
     8.2974         0.        0.5         0.
     8.3042         0.    0.57255         0.
     8.3111         0.    0.70962         0.
     8.3244         0.    0.81439         0.
      8.337         0.    0.71754         0.
     8.3495         0.    0.58842         0.
     8.3554         0.    0.43515         0.
     8.3685         0.    0.49153         0.
     8.3753         0.    0.58827         0.
     8.3823         0.    0.74147         0.
     8.3949         0.    0.63656         0.
     8.4134         0.    0.40256         0.
     8.4201         0.    0.46704         0.
     8.4272         0.    0.64444         0.
     8.4345         0.    0.87829         0.
     8.4466         0.    0.66046         0.
     8.4599         0.     0.7491         0.
     8.4724         0.    0.63612         0.
      8.485         0.    0.55539         0.
     8.4909         0.    0.38599         0.
     8.5114         0.    0.68429         0.
     8.5233         0.    0.40194         0.
     8.5368         0.     0.5793         0.
     8.5504         0.    0.74859         0.
     8.5563         0.    0.61145         0.
     8.5751         0.    0.45003         0.
     8.5821         0.     0.5871         0.
     8.5958         0.    0.79672         0.
     8.6012         0.    0.52247         0.
     8.6147         0.    0.66757         0.
     8.6203         0.    0.44171         0.
     8.6528         0.    0.48186         0.
     8.6588         0.    0.36084         0.
     8.6719         0.    0.40916         0.
      8.678         0.    0.29621         0.
     8.6976         0.    0.37675         0.
     8.7167         0.    0.29599         0.
     8.7356         0.    0.15878         0.
     8.7572         0.    0.76355         0.
     8.7704         0.    0.83606         0.
     8.8017         0.    0.56167         0.
     8.8201         0.    0.28734         0.
     8.8658         0.    0.41613         0.
     8.8984         0.    0.50466         0.
     8.9236         0.    0.31902         0.
     8.9623         0.    0.30267         0.
     8.9814         0.    0.22191         0.
     8.9947         0.    0.32668         0.
      9.021         0.    0.44751         0.
     9.0473         0.    0.56834         0.
      9.079         0.    0.41492         0.
     9.0981         0.    0.31803         0.
EndData:
