Comment: Data were digitized. Energy digitizing error is 3.19 keV
         data digitizing error is 0.003 (non-dimensional).
         Angle was converted from the center-of mass to
         the laboratory system.
         Data are given as Rutherford ratio. 

Version: R33
Source: D.Frekers et al. Nuclear Physics A v.394 (1983) 189
Name: Elena Kamskaya
Address1: All-Russia Scientific Research Institute of Experimental Physics
Address2: 607190, Mira, 37, Sarov, Nizhni Novgorod reg., Russia
Address3: tel: (831-30) 2-77-79   fax:( 831-30) 4-55-69
Address4: e-mail: kamskaya@expd.vniief.ru
Serial Number: 
SubFile: 
X4Number: F1042002 
Reaction: 40Ca(a,a0)40Ca 
Distribution: Energy
Composition: 
Masses:    4.000,   40.000,    4.000,   40.000
Zeds: 2, 20, 2, 20
Qvalue:        0.00,      0.00,      0.00,      0.00,      0.00
Theta:   115.00
Sigfactors: 1.00, 0.00 
Enfactors: 1000.00, 0.00, 0.00, 0.00
Units: rr
Data:
     4.4579         0.     1.0076         0.
     4.4902         0.     1.0071         0.
      4.516         0.     1.0065         0.
     4.5419         0.    0.99137         0.
     4.5613         0.    0.99135         0.
     4.5742         0.     1.0075         0.
     4.6259         0.    0.99934         0.
     4.6711         0.    0.99929         0.
      4.697         0.    0.99926         0.
     4.7228         0.     1.0234         0.
     4.7874         0.    0.99917         0.
     4.8004         0.     1.0395         0.
     4.8133         0.    0.99914         0.
     4.8392         0.     1.0314         0.
     4.8715         0.     1.0152         0.
     4.8973         0.    0.99905         0.
     4.9102         0.     1.0232         0.
     4.9231         0.    0.99902         0.
     4.9684         0.     1.0232         0.
     4.9878         0.     1.0231         0.
     5.0265         0.    0.99891         0.
     5.0459         0.    0.99082         0.
     5.1106         0.     1.0318         0.
       5.13         0.     1.0311         0.
     5.1622         0.     0.9907         0.
     5.1945         0.     0.9826         0.
     5.1946         0.     1.0229         0.
     5.2139         0.     0.9987         0.
     5.2398         0.     1.0309         0.
     5.2592         0.    0.99059         0.
      5.285         0.    0.99863         0.
     5.3173         0.     1.0228         0.
     5.3432         0.    0.97437         0.
      5.369         0.     1.0066         0.
     5.4014         0.     1.0469         0.
     5.4272         0.     1.0146         0.
     5.4401         0.    0.97426         0.
      5.453         0.     1.0146         0.
     5.4789         0.     1.0065         0.
     5.5177         0.     1.0141         0.
     5.5435         0.    0.99835         0.
     5.5758         0.    0.99831         0.
     5.6081         0.    0.99828         0.
      5.634         0.     1.0224         0.
     5.6404         0.    0.97405         0.
     5.6728         0.     1.0143         0.
     5.6856         0.      0.974         0.
     5.7115         0.    0.99816         0.
     5.7438         0.     1.0223         0.
     5.7762         0.     1.0223         0.
     5.7761         0.    0.98196         0.
     5.8084         0.    0.98193         0.
     5.8277         0.    0.82869         0.
     5.8472         0.    0.97382         0.
     5.8731         0.     1.0061         0.
     5.8988         0.    0.88506         0.
     5.9118         0.    0.97375         0.
     5.9506         0.     1.0302         0.
     5.9571         0.    0.98177         0.
     5.9699         0.    0.90918         0.
     5.9829         0.    0.98174         0.
     6.0088         0.    0.98978         0.
     6.0475         0.    0.96554         0.
     6.0539         0.     0.8365         0.
     6.0669         0.    0.98165         0.
     6.0799         0.       1.03         0.
     6.1057         0.    0.96548         0.
     6.1314         0.    0.76384         0.
      6.138         0.    0.93319         0.
     6.1574         0.     1.0299         0.
     6.1831         0.    0.81217         0.
     6.1897         0.    0.96539         0.
     6.2091         0.     1.0299         0.
     6.2284         0.    0.91696         0.
     6.2479         0.     1.0379         0.
     6.2607         0.    0.88467         0.
     6.2735         0.    0.65885         0.
     6.2865         0.    0.86045         0.
     6.2929         0.    0.70721         0.
     6.3124         0.    0.87655         0.
     6.3319         0.     1.0297         0.
     6.3448         0.    0.94103         0.
     6.3641         0.    0.92488         0.
     6.3705         0.    0.79584         0.
       6.39         0.    0.94098         0.
     6.4159         0.     1.0377         0.
     6.4288         0.      0.949         0.
     6.4351         0.    0.81996         0.
     6.4417         0.    0.91673         0.
     6.4546         0.     0.9651         0.
     6.4741         0.     1.0377         0.
     6.4869         0.      0.957         0.
     6.4934         0.    0.91667         0.
     6.4997         0.    0.75538         0.
     6.5127         0.    0.88439         0.
     6.5257         0.    0.94889         0.
      6.558         0.    0.86822         0.
     6.5707         0.    0.61014         0.
     6.5773         0.    0.82787         0.
     6.5839         0.    0.98915         0.
     6.5967         0.    0.80366         0.
     6.6161         0.    0.91654         0.
     6.6225         0.    0.71492         0.
     6.6288         0.    0.58588         0.
     6.6419         0.    0.79554         0.
     6.6611         0.    0.52133         0.
     6.6807         0.    0.78744         0.
     6.7002         0.    0.98903         0.
     6.7194         0.    0.65837         0.
     6.7324         0.    0.79545         0.
     6.7517         0.    0.68252         0.
     6.7583         0.      0.868         0.
     6.7778         0.    0.99701         0.
     6.7906         0.    0.86796         0.
     6.8036         0.    0.96472         0.
     6.8229         0.    0.84373         0.
     6.8358         0.    0.88404         0.
     6.8617         0.    0.94047         0.
     6.8681         0.    0.85175         0.
     6.8875         0.    0.77915         0.
     6.9003         0.     0.6501         0.
     6.9069         0.    0.84364         0.
     6.9264         0.    0.96459         0.
     6.9392         0.    0.84361         0.
     6.9457         0.    0.93231         0.
     6.9651         0.    0.97261         0.
     6.9717         0.       1.15         0.
     7.0039         0.     1.0048         0.
     7.0233         0.     0.9161         0.
     7.0167         0.    0.81933         0.
      7.049         0.     0.8193         0.
     7.0426         0.    0.91608         0.
     7.0621         0.    0.95638         0.
     7.0879         0.    0.92409         0.
     7.0943         0.     0.8757         0.
     7.1072         0.    0.81923         0.
     7.1199         0.    0.56922         0.
      7.133         0.    0.77838         0.
      7.146         0.    0.91596         0.
     7.1653         0.    0.78691         0.
     7.1719         0.    0.90787         0.
     7.1783         0.    0.81109         0.
     7.1911         0.    0.66592         0.
     7.2041         0.    0.81913         0.
     7.2105         0.    0.71428         0.
     7.2232         0.    0.39169         0.
     7.2428         0.    0.67393         0.
     7.2752         0.     0.7626         0.
     7.2947         0.     1.0206         0.
      7.314         0.     0.8432         0.
     7.3335         0.    0.96415         0.
     7.3528         0.    0.90768         0.
     7.3592         0.    0.74638         0.
     7.3722         0.    0.92378         0.
     7.3849         0.    0.59313         0.
     7.4108         0.     0.7302         0.
     7.4236         0.    0.47212         0.
     7.4367         0.    0.68985         0.
     7.4564         0.     1.1253         0.
     7.4755         0.    0.72206         0.
     7.4883         0.    0.58495         0.
     7.4948         0.    0.68172         0.
     7.5015         0.     0.9559         0.
     7.5206         0.    0.53653         0.
     7.5271         0.    0.67362         0.
     7.5466         0.    0.77037         0.
     7.5659         0.    0.68971         0.
     7.5658         0.    0.58487         0.
     7.5853         0.    0.72194         0.
     7.5917         0.     0.5929         0.
     7.6112         0.    0.73804         0.
      7.624         0.    0.59287         0.
     7.6435         0.    0.70575         0.
     7.6565         0.    0.81864         0.
     7.6692         0.    0.60895         0.
     7.6888         0.     0.8186         0.
     7.6951         0.    0.67344         0.
      7.708         0.    0.53633         0.
     7.7341         0.    0.92339         0.
     7.7534         0.    0.78627         0.
     7.7727         0.    0.67335         0.
      7.779         0.    0.52012         0.
     7.8051         0.    0.76203         0.
      7.831         0.    0.89909         0.
     7.8374         0.    0.77005         0.
     7.8566         0.    0.59262         0.
     7.8697         0.    0.85066         0.
     7.8889         0.    0.47968         0.
      7.915         0.    0.90707         0.
     7.9341         0.     0.4857         0.
     7.9537         0.    0.85864         0.
     7.9793         0.    0.48765         0.
     7.9927         0.     1.1005         0.
     8.0055         0.    0.93116         0.
     8.0183         0.    0.81018         0.
     8.0314         0.    0.99565         0.
     8.0377         0.    0.83435         0.
     8.0504         0.    0.49563         0.
     8.0635         0.    0.69723         0.
     8.0763         0.    0.49561         0.
     8.0959         0.     0.7859         0.
     8.1022         0.    0.64074         0.
     8.1153         0.     0.8262         0.
     8.1217         0.    0.72942         0.
      8.128         0.    0.58426         0.
      8.141         0.    0.72134         0.
     8.1605         0.    0.81809         0.
     8.1733         0.    0.70518         0.
     8.1797         0.    0.54388         0.
     8.1924         0.    0.29387         0.
     8.1991         0.    0.51967         0.
     8.2057         0.    0.74546         0.
     8.2249         0.    0.50351         0.
     8.2444         0.    0.68897         0.
     8.2442         0.    0.37446         0.
     8.2638         0.    0.64863         0.
     8.2701         0.    0.41475         0.
     8.2766         0.    0.54377         0.
     8.2959         0.    0.41472         0.
      8.322         0.    0.67276         0.
     8.3413         0.    0.55983         0.
     8.3541         0.    0.47111         0.
      8.367         0.    0.39852         0.
     8.3737         0.    0.77754         0.
     8.3865         0.    0.54366         0.
     8.4057         0.    0.35815         0.
     8.4188         0.    0.51943         0.
     8.4511         0.    0.59197         0.
     8.4704         0.     0.4226         0.
     8.4897         0.    0.30968         0.
     8.5156         0.    0.39029         0.
     8.5351         0.    0.47898         0.
     8.5416         0.      0.608         0.
     8.5673         0.     0.3983         0.
     8.5737         0.    0.30958         0.
     8.5868         0.    0.46279         0.
     8.5933         0.    0.59182         0.
     8.6061         0.    0.38213         0.
     8.6192         0.    0.64018         0.
     8.6384         0.    0.40629         0.
     8.6448         0.    0.28531         0.
     8.6642         0.    0.36594         0.
      8.677         0.     0.2127         0.
     8.6966         0.    0.41429         0.
     8.7093         0.     0.2046         0.
     8.7353         0.    0.31747         0.
     8.7615         0.    0.89808         0.
     8.7808         0.    0.71258         0.
     8.8063         0.    0.26901         0.
     8.8387         0.    0.37381         0.
     8.8582         0.    0.52702         0.
     8.8711         0.    0.45442         0.
      8.884         0.    0.48667         0.
     8.9227         0.    0.30921         0.
     8.9487         0.    0.50272         0.
     8.9873         0.     0.3172         0.
     9.0069         0.    0.62363         0.
     9.0328         0.    0.68811         0.
     9.0713         0.    0.38162         0.
     9.0907         0.     0.2929         0.
     9.1037         0.    0.42998         0.
     9.1167         0.    0.52674         0.
EndData:
