Comment: Data were digitized. Energy digitizing error is 2.075 keV
         data digitizing error is 0.006 (non-dimensional).
         Angle was converted from the center-of mass to
         the laboratory system.
         Data are given as Rutherford ratio. 

Version: R33
Source: D.Frekers et al. Nuclear Physics A v.394 (1983) 189
Name: Elena Kamskaya
Address1: All-Russia Scientific Research Institute of Experimental Physics
Address2: 607190, Mira, 37, Sarov, Nizhni Novgorod reg., Russia
Address3: tel: (831-30) 2-77-79   fax:( 831-30) 4-55-69
Address4: e-mail: kamskaya@expd.vniief.ru
Serial Number: 
SubFile: 
X4Number: F1042003 
Reaction: 40Ca(a,a0)40Ca 
Distribution: Energy
Composition: 
Masses:    4.000,   40.000,    4.000,   40.000
Zeds: 2, 20, 2, 20
Qvalue:        0.00,      0.00,      0.00,      0.00,      0.00
Theta:   175.00
Sigfactors: 1.00, 0.00 
Enfactors: 1000.00, 0.00, 0.00, 0.00
Units: rr
Data:
     4.4069         0.     1.0348         0.
     4.4906         0.    0.99852         0.
     4.5615         0.    0.99865         0.
     4.6066         0.    0.99874         0.
      4.671         0.    0.98673         0.
     4.6967         0.      1.011         0.
     4.7418         0.      0.979         0.
     4.7611         0.    0.99904         0.
     4.7998         0.    0.99811         0.
     4.8191         0.     1.0213         0.
     4.8449         0.     1.0117         0.
     4.8706         0.     1.0124         0.
     4.9479         0.     1.0115         0.
     4.9737         0.    0.97945         0.
     5.0123         0.    0.99952         0.
     5.0381         0.     1.0417         0.
     5.0896         0.     1.0482         0.
     5.1798         0.    0.98771         0.
      5.212         0.      1.012         0.
     5.2636         0.    0.98787         0.
     5.3473         0.     1.0012         0.
     5.3859         0.     1.0245         0.
     5.4246         0.     1.0125         0.
     5.4504         0.     0.9761         0.
     5.4761         0.     1.0034         0.
     5.5148         0.     1.0005         0.
     5.5277         0.    0.95197         0.
     5.5856         0.     1.3176         0.
     5.6307         0.    0.96431         0.
     5.6694         0.    0.96438         0.
     5.7338         0.    0.96451         0.
      5.766         0.     0.9767         0.
      5.824         0.    0.92827         0.
     5.8434         0.    0.83122         0.
     5.8625         0.     1.1589         0.
     5.8755         0.    0.94051         0.
     5.9077         0.     0.9163         0.
     5.9335         0.    0.96489         0.
     5.9592         0.    0.95281         0.
     5.9786         0.     0.9043         0.
     6.0044         0.    0.89221         0.
     6.0173         0.    0.83156         0.
     6.0301         0.     1.0715         0.
     6.0624         0.    0.77097         0.
     6.0623         0.    0.96514         0.
      6.075         0.     1.1957         0.
     6.1009         0.    0.95308         0.
     6.1139         0.    0.89242         0.
     6.1333         0.    0.74683         0.
      6.146         0.     0.9653         0.
     6.1523         0.     1.1959         0.
     6.1718         0.    0.92894         0.
     6.1848         0.     0.7712         0.
     6.2169         0.    0.92903         0.
     6.2298         0.    0.79556         0.
      6.249         0.     1.0262         0.
     6.2815         0.    0.62576         0.
     6.3069         0.     1.2569         0.
     6.3263         0.     1.0749         0.
     6.3587         0.    0.74727         0.
      6.365         0.     1.0121         0.
     6.3907         0.     1.0386         0.
     6.3971         0.     1.2085         0.
     6.4229         0.     1.1236         0.
     6.4295         0.    0.84449         0.
     6.4486         0.     1.2329         0.
      6.468         0.     1.0994         0.
      6.481         0.    0.90527         0.
     6.5004         0.    0.72327         0.
     6.5064         0.     1.4878         0.
     6.5257         0.     1.6699         0.
     6.5518         0.    0.94181         0.
     6.5777         0.    0.66274         0.
     6.5902         0.     1.4395         0.
     6.6097         0.     1.1361         0.
     6.6357         0.    0.62644         0.
     6.6483         0.     1.1362         0.
     6.6739         0.     1.4518         0.
     6.6934         0.     1.2091         0.
     6.6997         0.     1.4518         0.
     6.7193         0.    0.99068         0.
      6.732         0.     1.2698         0.
     6.7383         0.      1.464         0.
     6.7578         0.     1.1728         0.
     6.7641         0.      1.549         0.
     6.7706         0.     1.2942         0.
     6.7834         0.     1.4884         0.
     6.7964         0.     1.2814         0.
     6.8091         0.     1.6705         0.
     6.8158         0.     1.1608         0.
     6.8413         0.      1.622         0.
     6.8545         0.     1.0031         0.
     6.8608         0.     1.3914         0.
     6.8738         0.     1.1365         0.
       6.88         0.     1.6099         0.
     6.8995         0.     1.1731         0.
     6.9189         0.     1.0032         0.
     6.9383         0.    0.89401         0.
     6.9513         0.    0.74841         0.
     6.9642         0.    0.61494         0.
     6.9766         0.     1.5373         0.
     6.9962         0.     1.1732         0.
     7.0024         0.     1.5373         0.
     7.0155         0.     1.1612         0.
     7.0218         0.     1.3675         0.
      7.022         0.    0.95486         0.
     7.0412         0.     1.3068         0.
     7.0478         0.     1.0399         0.
     7.0733         0.     1.4525         0.
     7.0865         0.    0.87003         0.
     7.0991         0.     1.2948         0.
     7.1187         0.    0.79728         0.
     7.1378         0.     1.2706         0.
     7.1639         0.    0.59105         0.
     7.1958         0.     1.1979         0.
     7.2089         0.    0.73677         0.
      7.259         0.     3.3704         0.
     7.2985         0.     1.9384         0.
     7.3051         0.     1.6593         0.
     7.3181         0.      1.453         0.
      7.331         0.     1.2588         0.
     7.3566         0.     1.7079         0.
     7.3634         0.    0.95551         0.
     7.3825         0.     1.4167         0.
     7.3955         0.     1.1376         0.
     7.4082         0.     1.4289         0.
     7.4213         0.     1.0284         0.
     7.4275         0.     1.6231         0.
     7.4462         0.     2.7882         0.
     7.4663         0.     1.2955         0.
      7.485         0.     2.3392         0.
     7.5182         0.    0.62814         0.
     7.5308         0.     1.1743         0.
     7.5497         0.     1.8782         0.
     7.5698         0.    0.54329         0.
     7.5887         0.     1.3352         0.
     7.6137         0.     2.6186         0.
     7.6208         0.     1.3565         0.
     7.6399         0.     1.8784         0.
     7.6466         0.     1.3201         0.
     7.6598         0.    0.74978         0.
     7.6656         0.     1.9634         0.
     7.6845         0.     2.7158         0.
     7.6981         0.     1.4901         0.
     7.7046         0.     1.2596         0.
     7.7239         0.     1.3931         0.
     7.7305         0.     1.1261         0.
     7.7557         0.      2.097         0.
      7.769         0.     1.3204         0.
     7.8002         0.     3.2743         0.
     7.8078         0.     1.1141         0.
     7.8202         0.     2.0365         0.
     7.8271         0.     1.1263         0.
     7.8333         0.     1.4904         0.
     7.8466         0.    0.83509         0.
     7.8592         0.     1.3327         0.
     7.8722         0.     1.0414         0.
     7.8784         0.     1.4784         0.
     7.8851         0.     1.0536         0.
     7.8971         0.     2.7648         0.
     7.9109         0.     1.0537         0.
     7.9297         0.     2.0367         0.
     7.9678         0.      2.947         0.
     7.9555         0.     1.9033         0.
     7.9812         0.     2.0732         0.
     7.9876         0.     2.0244         0.
     7.9942         0.     1.7092         0.
     8.0268         0.     1.1024         0.
     8.0463         0.    0.77479         0.
     8.0524         0.     1.3573         0.
      8.072         0.    0.77489         0.
     8.0848         0.    0.96904         0.
     8.0979         0.    0.59285         0.
     8.0976         0.     1.1026         0.
     8.1041         0.     1.1053         0.
     8.1235         0.    0.87203         0.
     8.1297         0.     1.3575         0.
     8.1363         0.      1.042         0.
     8.1426         0.      1.406         0.
     8.1556         0.     1.0784         0.
     8.1683         0.     1.4061         0.
     8.1814         0.     1.1149         0.
      8.181         0.     1.7095         0.
      8.188         0.    0.82361         0.
     8.2068         0.     1.7581         0.
     8.2138         0.    0.66589         0.
     8.2197         0.      1.746         0.
      8.233         0.    0.96933         0.
      8.239         0.      1.746         0.
     8.2718         0.    0.58105         0.
     8.2957         0.     3.9913         0.
     8.3038         0.     1.0686         0.
     8.3657         0.     5.5812         0.
     8.3873         0.     1.3701         0.
     8.4177         0.     4.7925         0.
      8.439         0.     1.1882         0.
     8.4831         0.      3.045         0.
     8.4971         0.    0.99415         0.
     8.5395         0.      5.885         0.
     8.5547         0.     1.6496         0.
     8.5739         0.     1.8074         0.
     8.5808         0.       0.97         0.
     8.5932         0.     1.8195         0.
     8.6003         0.    0.58169         0.
     8.6126         0.     1.7953         0.
     8.6197         0.    0.50891         0.
     8.6382         0.     1.9774         0.
     8.6711         0.      0.776         0.
     8.6771         0.     1.4678         0.
     8.6892         0.      2.912         0.
     8.7159         0.     1.2251         0.
     8.7277         0.     3.2033         0.
     8.7481         0.     1.2737         0.
     8.7666         0.     2.8272         0.
     8.7735         0.     1.9898         0.
     8.7792         0.     3.2883         0.
     8.8315         0.     1.9171         0.
     8.8374         0.     2.8152         0.
     8.8446         0.     1.5773         0.
       8.85         0.     3.4948         0.
     8.8772         0.    0.84921         0.
     8.8891         0.     2.5361         0.
     8.9027         0.     1.2983         0.
     8.9591         0.     4.1746         0.
     9.0316         0.     1.0922         0.
     9.0444         0.     1.3248         0.
     9.0703         0.     1.3166         0.
     9.0883         0.      3.386         0.
     9.1152         0.     1.4201         0.
EndData:
